Theta [deg.]  Phi   [deg.]  Abs(Dir.)[      ]   Abs(Theta)[      ]  Phase(Theta)[deg.]  Abs(Phi  )[      ]  Phase(Phi  )[deg.]  Ax.Ratio[      ]    
------------------------------------------------------------------------------------------------------------------------------------------------------
-180.000         -90.000            7.715e-02           1.446e-07             355.600           7.715e-02             138.064           3.162e+02     
-179.000         -90.000            7.908e-02           3.033e-03             300.658           7.605e-02             137.659           1.775e+01     
-178.000         -90.000            8.397e-02           1.115e-02             300.630           7.282e-02             136.448           1.072e+01     
-177.000         -90.000            8.963e-02           2.186e-02             300.827           6.777e-02             134.394           9.825e+00     
-176.000         -90.000            9.326e-02           3.186e-02             301.212           6.140e-02             131.429           1.180e+01     
-175.000         -90.000            9.235e-02           3.807e-02             301.846           5.427e-02             127.465           2.070e+01     
-174.000         -90.000            8.561e-02           3.861e-02             302.868           4.700e-02             122.390           2.407e+02     
-173.000         -90.000            7.347e-02           3.332e-02             304.559           4.015e-02             116.094           1.357e+01     
-172.000         -90.000            5.804e-02           2.391e-02             307.556           3.413e-02             108.504           6.059e+00     
-171.000         -90.000            4.260e-02           1.335e-02             313.596           2.925e-02              99.641           3.580e+00     
-170.000         -90.000            3.068e-02           5.073e-03             329.197           2.561e-02              89.689           2.762e+00     
-169.000         -90.000            2.502e-02           1.861e-03              21.198           2.316e-02              79.034           4.268e+00     
-168.000         -90.000            2.676e-02           5.050e-03              75.027           2.171e-02              68.194           2.143e+01     
-167.000         -90.000            3.509e-02           1.410e-02              91.427           2.099e-02              57.677           3.375e+00     
-166.000         -90.000            4.741e-02           2.672e-02              97.912           2.069e-02              47.843           2.168e+00     
-165.000         -90.000            6.005e-02           3.956e-02             101.414           2.049e-02              38.848           1.830e+00     
-164.000         -90.000            6.925e-02           4.911e-02             103.830           2.014e-02              30.686           1.719e+00     
-163.000         -90.000            7.219e-02           5.274e-02             105.956           1.945e-02              23.262           1.676e+00     
