Theta [deg.]  Phi   [deg.]  Abs(Dir.)[      ]   Abs(Theta)[      ]  Phase(Theta)[deg.]  Abs(Phi  )[      ]  Phase(Phi  )[deg.]  Ax.Ratio[      ]    
------------------------------------------------------------------------------------------------------------------------------------------------------
-180.000         -90.000            4.375e-03           1.474e-07             216.195           4.375e-03             309.202           1.725e+02     
-179.000         -90.000            8.167e-03           3.941e-03             153.201           4.226e-03             308.018           4.480e+00     
-178.000         -90.000            1.874e-02           1.492e-02             153.191           3.820e-03             304.231           4.924e+00     
-177.000         -90.000            3.401e-02           3.074e-02             153.367           3.268e-03             297.233           5.574e+00     
-176.000         -90.000            5.096e-02           4.822e-02             153.686           2.737e-03             286.079           5.835e+00     
-175.000         -90.000            6.632e-02           6.389e-02             154.168           2.425e-03             270.152           5.753e+00     
-174.000         -90.000            7.720e-02           7.466e-02             154.866           2.534e-03             250.918           5.461e+00     
-173.000         -90.000            8.169e-02           7.845e-02             155.866           3.234e-03             232.357           5.077e+00     
-172.000         -90.000            7.926e-02           7.461e-02             157.315           4.646e-03             217.451           4.696e+00     
-171.000         -90.000            7.086e-02           6.404e-02             159.477           6.812e-03             206.360           4.421e+00     
-170.000         -90.000            5.869e-02           4.900e-02             162.845           9.694e-03             198.053           4.446e+00     
-169.000         -90.000            4.577e-02           3.260e-02             168.496           1.317e-02             191.552           5.457e+00     
-168.000         -90.000            3.531e-02           1.827e-02             179.059           1.705e-02             186.185           1.607e+01     
-167.000         -90.000            3.004e-02           8.967e-03             201.352           2.108e-02             181.521           6.283e+00     
-166.000         -90.000            3.168e-02           6.693e-03             242.031           2.499e-02             177.282           2.268e+00     
-165.000         -90.000            4.057e-02           1.206e-02             276.311           2.851e-02             173.285           1.634e+00     
-164.000         -90.000            5.560e-02           2.421e-02             293.054           3.139e-02             169.405           1.895e+00     
-163.000         -90.000            7.445e-02           4.101e-02             301.645           3.344e-02             165.549           2.499e+00     
