Theta [deg.]  Phi   [deg.]  Abs(Dir.)[      ]   Abs(Theta)[      ]  Phase(Theta)[deg.]  Abs(Phi  )[      ]  Phase(Phi  )[deg.]  Ax.Ratio[      ]    
------------------------------------------------------------------------------------------------------------------------------------------------------
-180.000         -90.000            8.887e-02           2.688e-08             170.165           8.887e-02              21.692           3.162e+02     
-179.000         -90.000            8.990e-02           2.224e-03             110.948           8.768e-02              21.296           6.279e+00     
-178.000         -90.000            9.254e-02           8.329e-03             110.955           8.421e-02              20.097           3.180e+00     
-177.000         -90.000            9.562e-02           1.680e-02             111.096           7.882e-02              18.053           2.171e+00     
-176.000         -90.000            9.756e-02           2.553e-02             111.354           7.203e-02              15.097           1.701e+00     
-175.000         -90.000            9.682e-02           3.234e-02             111.763           6.448e-02              11.141           1.483e+00     
-174.000         -90.000            9.235e-02           3.553e-02             112.395           5.682e-02               6.087           1.454e+00     
-173.000         -90.000            8.398e-02           3.430e-02             113.373           4.968e-02             359.855           1.590e+00     
-172.000         -90.000            7.248e-02           2.896e-02             114.944           4.353e-02             352.425           1.893e+00     
-171.000         -90.000            5.954e-02           2.085e-02             117.639           3.869e-02             343.897           2.502e+00     
-170.000         -90.000            4.736e-02           1.208e-02             122.834           3.528e-02             334.535           4.123e+00     
-169.000         -90.000            3.820e-02           4.974e-03             135.333           3.323e-02             324.754           1.810e+01     
-168.000         -90.000            3.387e-02           1.547e-03             177.027           3.232e-02             315.023           7.015e+00     
-167.000         -90.000            3.522e-02           3.017e-03             239.906           3.221e-02             305.737           3.642e+00     
-166.000         -90.000            4.200e-02           9.497e-03             260.850           3.250e-02             297.123           3.776e+00     
-165.000         -90.000            5.277e-02           1.995e-02             268.550           3.282e-02             289.243           5.660e+00     
-164.000         -90.000            6.524e-02           3.240e-02             272.524           3.285e-02             282.037           1.202e+01     
-163.000         -90.000            7.668e-02           4.435e-02             275.131           3.233e-02             275.384           3.162e+02     
