Theta [deg.]  Phi   [deg.]  Abs(Dir.)[      ]   Abs(Theta)[      ]  Phase(Theta)[deg.]  Abs(Phi  )[      ]  Phase(Phi  )[deg.]  Ax.Ratio[      ]    
------------------------------------------------------------------------------------------------------------------------------------------------------
-180.000         -90.000            2.251e-02           5.704e-08              73.131           2.251e-02             163.988           3.162e+02     
-179.000         -90.000            2.584e-02           3.537e-03             231.456           2.230e-02             163.223           2.772e+00     
-178.000         -90.000            3.468e-02           1.295e-02             231.575           2.173e-02             160.925           1.543e+00     
-177.000         -90.000            4.583e-02           2.490e-02             231.732           2.093e-02             157.108           1.330e+00     
-176.000         -90.000            5.524e-02           3.517e-02             231.982           2.007e-02             151.828           1.392e+00     
-175.000         -90.000            5.947e-02           4.011e-02             232.390           1.936e-02             145.228           1.444e+00     
-174.000         -90.000            5.693e-02           3.798e-02             233.073           1.895e-02             137.570           1.435e+00     
-173.000         -90.000            4.846e-02           2.953e-02             234.285           1.892e-02             129.227           1.417e+00     
-172.000         -90.000            3.706e-02           1.777e-02             236.692           1.929e-02             120.610           1.606e+00     
-171.000         -90.000            2.687e-02           6.909e-03             242.807           1.996e-02             112.067           2.641e+00     
-170.000         -90.000            2.169e-02           9.291e-04             274.288           2.077e-02             103.817           2.980e+01     
-169.000         -90.000            2.369e-02           2.179e-03              19.471           2.151e-02              95.927           3.251e+00     
-168.000         -90.000            3.258e-02           1.058e-02              35.840           2.200e-02              88.352           2.246e+00     
-167.000         -90.000            4.572e-02           2.364e-02              40.655           2.208e-02              80.969           2.726e+00     
-166.000         -90.000            5.896e-02           3.730e-02              43.336           2.167e-02              73.619           3.854e+00     
-165.000         -90.000            6.805e-02           4.729e-02              45.565           2.076e-02              66.127           6.017e+00     
-164.000         -90.000            7.000e-02           5.055e-02              48.049           1.945e-02              58.321           1.244e+01     
-163.000         -90.000            6.414e-02           4.627e-02              51.421           1.787e-02              50.041           9.261e+01     
