Theta [deg.]  Phi   [deg.]  Abs(Dir.)[      ]   Abs(Theta)[      ]  Phase(Theta)[deg.]  Abs(Phi  )[      ]  Phase(Phi  )[deg.]  Ax.Ratio[      ]    
------------------------------------------------------------------------------------------------------------------------------------------------------
-180.000         -90.000            7.080e-03           7.019e-08             133.379           7.080e-03              60.619           3.162e+02     
-179.000         -90.000            1.132e-02           4.163e-03             279.774           7.152e-03              59.528           2.860e+00     
-178.000         -90.000            2.230e-02           1.492e-02             280.060           7.375e-03              56.406           2.710e+00     
-177.000         -90.000            3.545e-02           2.767e-02             280.497           7.778e-03              51.595           2.857e+00     
-176.000         -90.000            4.535e-02           3.697e-02             281.213           8.382e-03              45.584           2.759e+00     
-175.000         -90.000            4.805e-02           3.887e-02             282.405           9.180e-03              38.880           2.430e+00     
-174.000         -90.000            4.272e-02           3.260e-02             284.489           1.011e-02              31.885           1.953e+00     
-173.000         -90.000            3.204e-02           2.097e-02             288.550           1.107e-02              24.823           1.402e+00     
-172.000         -90.000            2.099e-02           9.084e-03             298.369           1.191e-02              17.743           1.260e+00     
-171.000         -90.000            1.475e-02           2.271e-03             334.802           1.248e-02              10.560           4.520e+00     
-170.000         -90.000            1.642e-02           3.758e-03              49.597           1.266e-02               3.102           2.942e+00     
-169.000         -90.000            2.574e-02           1.331e-02              72.286           1.243e-02             355.139           1.257e+00     
-168.000         -90.000            3.912e-02           2.731e-02              79.880           1.181e-02             346.406           1.528e+00     
-167.000         -90.000            5.115e-02           4.022e-02              83.946           1.093e-02             336.629           2.073e+00     
-166.000         -90.000            5.687e-02           4.689e-02              87.089           9.987e-03             325.579           2.714e+00     
-165.000         -90.000            5.383e-02           4.466e-02              90.484           9.162e-03             313.182           3.650e+00     
-164.000         -90.000            4.318e-02           3.456e-02              95.346           8.620e-03             299.651           5.909e+00     
-163.000         -90.000            2.933e-02           2.087e-02             104.166           8.455e-03             285.554           9.113e+01     
