Theta [deg.]  Phi   [deg.]  Abs(Dir.)[      ]   Abs(Theta)[      ]  Phase(Theta)[deg.]  Abs(Phi  )[      ]  Phase(Phi  )[deg.]  Ax.Ratio[      ]    
------------------------------------------------------------------------------------------------------------------------------------------------------
-180.000         -90.000            1.527e-03           1.019e-07             126.385           1.527e-03             103.621           3.162e+02     
-179.000         -90.000            4.648e-03           3.118e-03             168.065           1.530e-03             103.529           1.802e+00     
-178.000         -90.000            1.306e-02           1.152e-02             168.296           1.543e-03             103.176           3.092e+00     
-177.000         -90.000            2.435e-02           2.279e-02             168.556           1.563e-03             102.555           4.230e+00     
-176.000         -90.000            3.528e-02           3.369e-02             168.940           1.589e-03             101.657           5.028e+00     
-175.000         -90.000            4.274e-02           4.112e-02             169.527           1.617e-03             100.475           5.428e+00     
-174.000         -90.000            4.463e-02           4.298e-02             170.444           1.642e-03              98.998           5.419e+00     
-173.000         -90.000            4.049e-02           3.883e-02             171.922           1.659e-03              97.206           5.030e+00     
-172.000         -90.000            3.159e-02           2.992e-02             174.431           1.665e-03              95.113           4.323e+00     
-171.000         -90.000            2.056e-02           1.891e-02             179.112           1.653e-03              92.680           3.390e+00     
-170.000         -90.000            1.066e-02           9.035e-03             189.381           1.621e-03              89.922           2.408e+00     
-169.000         -90.000            4.750e-03           3.184e-03             218.332           1.566e-03              86.809           2.430e+00     
-168.000         -90.000            4.569e-03           3.082e-03             277.746           1.487e-03              83.316           8.446e+00     
-167.000         -90.000            1.020e-02           8.814e-03             308.015           1.386e-03              79.402           3.613e+00     
-166.000         -90.000            2.008e-02           1.881e-02             318.878           1.266e-03              75.020           4.353e+00     
-165.000         -90.000            3.145e-02           3.032e-02             324.121           1.133e-03              70.094           5.397e+00     
-164.000         -90.000            4.119e-02           4.019e-02             327.392           9.930e-04              64.527           6.414e+00     
-163.000         -90.000            4.662e-02           4.576e-02             330.006           8.548e-04              58.206           7.320e+00     
