Theta [deg.]  Phi   [deg.]  Abs(Dir.)[      ]   Abs(Theta)[      ]  Phase(Theta)[deg.]  Abs(Phi  )[      ]  Phase(Phi  )[deg.]  Ax.Ratio[      ]    
------------------------------------------------------------------------------------------------------------------------------------------------------
-180.000         -90.000            2.445e-02           1.032e-07               2.771           2.445e-02             310.101           3.162e+02     
-179.000         -90.000            2.774e-02           3.620e-03               7.318           2.412e-02             309.505           3.195e+00     
-178.000         -90.000            3.641e-02           1.326e-02               7.457           2.315e-02             307.727           1.872e+00     
-177.000         -90.000            4.754e-02           2.588e-02               7.704           2.166e-02             304.722           1.647e+00     
-176.000         -90.000            5.733e-02           3.749e-02               8.107           1.984e-02             300.427           1.676e+00     
-175.000         -90.000            6.232e-02           4.444e-02               8.747           1.787e-02             294.771           1.719e+00     
-174.000         -90.000            6.053e-02           4.456e-02               9.771           1.597e-02             287.703           1.704e+00     
-173.000         -90.000            5.213e-02           3.784e-02              11.474           1.429e-02             279.233           1.630e+00     
-172.000         -90.000            3.946e-02           2.650e-02              14.535           1.296e-02             269.472           1.567e+00     
-171.000         -90.000            2.620e-02           1.418e-02              20.846           1.202e-02             258.665           1.822e+00     
-170.000         -90.000            1.644e-02           4.955e-03              38.075           1.149e-02             247.157           4.248e+00     
-169.000         -90.000            1.328e-02           1.965e-03              97.438           1.131e-02             235.323           3.946e+00     
-168.000         -90.000            1.791e-02           6.474e-03             146.992           1.144e-02             223.471           1.452e+00     
-167.000         -90.000            2.928e-02           1.748e-02             161.140           1.180e-02             211.800           2.177e+00     
-166.000         -90.000            4.434e-02           3.199e-02             167.017           1.235e-02             200.402           3.791e+00     
-165.000         -90.000            5.901e-02           4.596e-02             170.422           1.305e-02             189.317           7.305e+00     
-164.000         -90.000            6.936e-02           5.548e-02             173.053           1.388e-02             178.564           2.598e+01     
-163.000         -90.000            7.278e-02           5.792e-02             175.676           1.485e-02             168.188           1.899e+01     
