Theta [deg.]  Phi   [deg.]  Abs(Dir.)[      ]   Abs(Theta)[      ]  Phase(Theta)[deg.]  Abs(Phi  )[      ]  Phase(Phi  )[deg.]  Ax.Ratio[      ]    
------------------------------------------------------------------------------------------------------------------------------------------------------
-180.000         -90.000            4.730e-02           7.736e-08              46.293           4.730e-02             271.954           3.162e+02     
-179.000         -90.000            5.054e-02           3.720e-03             189.051           4.682e-02             271.452           3.585e+00     
-178.000         -90.000            5.934e-02           1.391e-02             189.259           4.543e-02             269.934           1.852e+00     
-177.000         -90.000            7.106e-02           2.777e-02             189.519           4.329e-02             267.375           1.362e+00     
-176.000         -90.000            8.213e-02           4.151e-02             189.902           4.062e-02             263.736           1.331e+00     
-175.000         -90.000            8.911e-02           5.138e-02             190.469           3.773e-02             258.984           1.515e+00     
-174.000         -90.000            8.962e-02           5.473e-02             191.317           3.489e-02             253.112           1.759e+00     
-173.000         -90.000            8.310e-02           5.070e-02             192.617           3.240e-02             246.167           2.065e+00     
-172.000         -90.000            7.093e-02           4.048e-02             194.710           3.045e-02             238.289           2.537e+00     
-171.000         -90.000            5.610e-02           2.694e-02             198.373           2.916e-02             229.713           3.568e+00     
-170.000         -90.000            4.241e-02           1.385e-02             205.813           2.856e-02             220.757           8.147e+00     
-169.000         -90.000            3.339e-02           4.825e-03             225.665           2.857e-02             211.750           1.174e+01     
-168.000         -90.000            3.140e-02           2.371e-03             284.843           2.903e-02             202.967           3.541e+00     
-167.000         -90.000            3.691e-02           7.200e-03             329.317           2.971e-02             194.581           3.244e+00     
-166.000         -90.000            4.845e-02           1.807e-02             343.494           3.037e-02             186.657           5.059e+00     
-165.000         -90.000            6.293e-02           3.216e-02             349.891           3.077e-02             179.171           1.232e+01     
-164.000         -90.000            7.654e-02           4.582e-02             353.882           3.072e-02             172.050           6.380e+01     
-163.000         -90.000            8.566e-02           5.557e-02             357.111           3.009e-02             165.188           1.004e+01     
