Theta [deg.]  Phi   [deg.]  Abs(Dir.)[      ]   Abs(Theta)[      ]  Phase(Theta)[deg.]  Abs(Phi  )[      ]  Phase(Phi  )[deg.]  Ax.Ratio[      ]    
------------------------------------------------------------------------------------------------------------------------------------------------------
-180.000         -90.000            3.930e-03           1.651e-06             330.090           3.928e-03              11.891           7.320e+01     
-179.000         -90.000            9.136e-03           5.371e-03             347.779           3.765e-03              10.335           5.100e+00     
-178.000         -90.000            2.206e-02           1.869e-02             347.998           3.370e-03               5.861           8.950e+00     
-177.000         -90.000            3.674e-02           3.387e-02             348.185           2.874e-03             357.914           2.199e+01     
-176.000         -90.000            4.644e-02           4.399e-02             348.463           2.449e-03             345.910           1.005e+02     
-175.000         -90.000            4.675e-02           4.450e-02             348.943           2.256e-03             330.193           1.445e+01     
-174.000         -90.000            3.765e-02           3.525e-02             349.844           2.401e-03             313.102           6.692e+00     
-173.000         -90.000            2.343e-02           2.053e-02             351.760           2.899e-03             297.777           3.466e+00     
-172.000         -90.000            1.063e-02           6.966e-03             357.195           3.665e-03             285.681           1.589e+00     
-171.000         -90.000            5.014e-03           4.786e-04              40.695           4.535e-03             276.506           3.855e+00     
-170.000         -90.000            8.893e-03           3.589e-03             147.613           5.304e-03             269.403           1.861e+00     
-169.000         -90.000            2.015e-02           1.437e-02             157.042           5.777e-03             263.610           1.729e+00     
-168.000         -90.000            3.331e-02           2.749e-02             160.339           5.820e-03             258.549           2.208e+00     
-167.000         -90.000            4.213e-02           3.674e-02             162.667           5.393e-03             253.771           2.611e+00     
-166.000         -90.000            4.251e-02           3.795e-02             165.296           4.560e-03             248.866           2.908e+00     
-165.000         -90.000            3.433e-02           3.086e-02             169.317           3.471e-03             243.339           3.131e+00     
-164.000         -90.000            2.145e-02           1.912e-02             176.930           2.325e-03             236.391           3.444e+00     
-163.000         -90.000            9.870e-03           8.548e-03             194.978           1.322e-03             226.341           5.457e+00     
