Theta [deg.]  Phi   [deg.]  Abs(Dir.)[      ]   Abs(Theta)[      ]  Phase(Theta)[deg.]  Abs(Phi  )[      ]  Phase(Phi  )[deg.]  Ax.Ratio[      ]    
------------------------------------------------------------------------------------------------------------------------------------------------------
-180.000         -90.000            3.505e-02           4.047e-07             322.427           3.505e-02             119.552           3.162e+02     
-179.000         -90.000            3.788e-02           3.741e-03             192.335           3.414e-02             118.854           3.182e+00     
-178.000         -90.000            4.528e-02           1.369e-02             192.110           3.160e-02             116.831           1.643e+00     
-177.000         -90.000            5.404e-02           2.619e-02             192.048           2.785e-02             113.309           1.222e+00     
-176.000         -90.000            6.017e-02           3.665e-02             192.056           2.353e-02             107.995           1.278e+00     
-175.000         -90.000            6.050e-02           4.122e-02             192.151           1.928e-02             100.500           1.464e+00     
-174.000         -90.000            5.393e-02           3.821e-02             192.401           1.573e-02              90.454           1.639e+00     
-173.000         -90.000            4.198e-02           2.869e-02             192.975           1.329e-02              77.859           1.827e+00     
-172.000         -90.000            2.831e-02           1.616e-02             194.351           1.216e-02              63.552           2.218e+00     
-171.000         -90.000            1.753e-02           5.289e-03             198.627           1.224e-02              49.182           4.038e+00     
-170.000         -90.000            1.350e-02           2.497e-04             243.099           1.325e-02              36.290           1.640e+01     
-169.000         -90.000            1.798e-02           3.235e-03             355.036           1.475e-02              25.528           4.928e+00     
-168.000         -90.000            2.991e-02           1.367e-02               1.775           1.625e-02              16.764           7.631e+00     
-167.000         -90.000            4.569e-02           2.838e-02               3.789           1.731e-02               9.559           2.046e+01     
-166.000         -90.000            6.033e-02           4.270e-02               4.858           1.763e-02               3.457           8.992e+01     
-165.000         -90.000            6.908e-02           5.201e-02               5.761           1.707e-02             358.079           1.729e+01     
-164.000         -90.000            6.899e-02           5.333e-02               6.885           1.565e-02             353.117           9.931e+00     
-163.000         -90.000            5.988e-02           4.631e-02               8.650           1.357e-02             348.313           6.724e+00     
