Theta [deg.]  Phi   [deg.]  Abs(Dir.)[      ]   Abs(Theta)[      ]  Phase(Theta)[deg.]  Abs(Phi  )[      ]  Phase(Phi  )[deg.]  Ax.Ratio[      ]    
------------------------------------------------------------------------------------------------------------------------------------------------------
-180.000         -90.000            3.243e-02           1.909e-07             199.626           3.243e-02             221.607           3.162e+02     
-179.000         -90.000            3.583e-02           3.849e-03             192.316           3.199e-02             221.099           6.555e+00     
-178.000         -90.000            4.496e-02           1.424e-02             192.455           3.071e-02             219.565           4.494e+00     
-177.000         -90.000            5.710e-02           2.834e-02             192.674           2.876e-02             216.948           4.650e+00     
-176.000         -90.000            6.862e-02           4.230e-02             193.018           2.632e-02             213.158           5.801e+00     
-175.000         -90.000            7.599e-02           5.233e-02             193.549           2.366e-02             208.081           8.489e+00     
-174.000         -90.000            7.676e-02           5.573e-02             194.364           2.103e-02             201.595           1.775e+01     
-173.000         -90.000            7.031e-02           5.160e-02             195.645           1.871e-02             193.620           6.402e+01     
-172.000         -90.000            5.805e-02           4.117e-02             197.770           1.688e-02             184.186           9.268e+00     
-171.000         -90.000            4.303e-02           2.733e-02             201.553           1.570e-02             173.529           4.182e+00     
-170.000         -90.000            2.922e-02           1.398e-02             209.427           1.523e-02             162.106           2.285e+00     
-169.000         -90.000            2.038e-02           4.916e-03             230.828           1.546e-02             150.510           1.822e+00     
-168.000         -90.000            1.911e-02           2.819e-03             290.342           1.629e-02             139.284           5.651e+00     
-167.000         -90.000            2.616e-02           8.561e-03             331.242           1.760e-02             128.764           5.389e+00     
-166.000         -90.000            4.017e-02           2.097e-02             344.561           1.919e-02             119.059           2.388e+00     
-165.000         -90.000            5.805e-02           3.716e-02             350.525           2.089e-02             110.115           1.858e+00     
-164.000         -90.000            7.577e-02           5.326e-02             354.092           2.251e-02             101.801           1.713e+00     
-163.000         -90.000            8.937e-02           6.545e-02             356.795           2.392e-02              93.967           1.682e+00     
