Theta [deg.]  Phi   [deg.]  Abs(Dir.)[      ]   Abs(Theta)[      ]  Phase(Theta)[deg.]  Abs(Phi  )[      ]  Phase(Phi  )[deg.]  Ax.Ratio[      ]    
------------------------------------------------------------------------------------------------------------------------------------------------------
-180.000         -90.000            1.900e-02           1.655e-08             230.791           1.900e-02             146.275           3.162e+02     
-179.000         -90.000            2.290e-02           4.045e-03             185.279           1.886e-02             145.507           3.839e+00     
-178.000         -90.000            3.312e-02           1.466e-02             185.270           1.846e-02             143.210           2.624e+00     
-177.000         -90.000            4.583e-02           2.792e-02             185.326           1.791e-02             139.416           2.444e+00     
-176.000         -90.000            5.630e-02           3.894e-02             185.452           1.736e-02             134.216           2.352e+00     
-175.000         -90.000            6.064e-02           4.366e-02             185.690           1.698e-02             127.801           2.168e+00     
-174.000         -90.000            5.725e-02           4.038e-02             186.129           1.687e-02             120.482           1.874e+00     
-173.000         -90.000            4.745e-02           3.034e-02             186.969           1.711e-02             112.663           1.494e+00     
-172.000         -90.000            3.490e-02           1.725e-02             188.754           1.765e-02             104.754           1.111e+00     
-171.000         -90.000            2.430e-02           5.901e-03             193.739           1.840e-02              97.073           1.789e+00     
-170.000         -90.000            1.959e-02           4.154e-04             231.969           1.917e-02              89.802           1.123e+01     
-169.000         -90.000            2.250e-02           2.739e-03             345.131           1.976e-02              82.976           2.720e+00     
-168.000         -90.000            3.195e-02           1.198e-02             354.646           1.997e-02              76.532           1.341e+00     
-167.000         -90.000            4.441e-02           2.476e-02             357.785           1.965e-02              70.338           1.392e+00     
-166.000         -90.000            5.523e-02           3.651e-02             359.819           1.872e-02              64.223           1.781e+00     
-165.000         -90.000            6.033e-02           4.312e-02               1.845           1.721e-02              57.988           2.216e+00     
-164.000         -90.000            5.765e-02           4.242e-02               4.502           1.522e-02              51.404           2.742e+00     
-163.000         -90.000            4.788e-02           3.493e-02               8.622           1.295e-02              44.196           3.591e+00     
