Theta [deg.]  Phi   [deg.]  Abs(Dir.)[      ]   Abs(Theta)[      ]  Phase(Theta)[deg.]  Abs(Phi  )[      ]  Phase(Phi  )[deg.]  Ax.Ratio[      ]    
------------------------------------------------------------------------------------------------------------------------------------------------------
-180.000         -90.000            3.063e-04           2.454e-09             304.137           3.063e-04             342.330           3.162e+02     
-179.000         -90.000            2.790e-03           2.478e-03             114.166           3.117e-04             342.094           4.028e+00     
-178.000         -90.000            9.290e-03           8.961e-03             114.349           3.285e-04             341.359           7.265e+00     
-177.000         -90.000            1.729e-02           1.694e-02             114.692           3.553e-04             340.149           9.789e+00     
-176.000         -90.000            2.372e-02           2.333e-02             115.278           3.892e-04             338.485           1.141e+01     
-175.000         -90.000            2.612e-02           2.570e-02             116.262           4.259e-04             336.368           1.218e+01     
-174.000         -90.000            2.364e-02           2.318e-02             117.965           4.597e-04             333.767           1.230e+01     
-173.000         -90.000            1.731e-02           1.682e-02             121.110           4.843e-04             330.607           1.223e+01     
-172.000         -90.000            9.671e-03           9.178e-03             127.791           4.939e-04             326.768           1.390e+01     
-171.000         -90.000            3.768e-03           3.283e-03             146.232           4.849e-04             322.060           4.102e+01     
-170.000         -90.000            1.952e-03           1.495e-03             204.848           4.573e-04             316.217           2.047e+00     
-169.000         -90.000            4.990e-03           4.575e-03             250.761           4.151e-04             308.869           4.016e+00     
-168.000         -90.000            1.177e-02           1.140e-02             264.509           3.665e-04             299.565           9.923e+00     
-167.000         -90.000            1.974e-02           1.942e-02             270.183           3.225e-04             287.891           2.590e+01     
-166.000         -90.000            2.590e-02           2.561e-02             273.396           2.941e-04             273.801           3.162e+02     
-165.000         -90.000            2.793e-02           2.764e-02             275.861           2.908e-04             258.133           3.232e+01     
-164.000         -90.000            2.508e-02           2.476e-02             278.512           3.172e-04             242.573           1.518e+01     
-163.000         -90.000            1.845e-02           1.808e-02             282.419           3.721e-04             228.713           8.711e+00     
