Theta [deg.]  Phi   [deg.]  Abs(Dir.)[      ]   Abs(Theta)[      ]  Phase(Theta)[deg.]  Abs(Phi  )[      ]  Phase(Phi  )[deg.]  Ax.Ratio[      ]    
------------------------------------------------------------------------------------------------------------------------------------------------------
-180.000         -90.000            2.284e-03           3.390e-08             165.138           2.284e-03             210.384           3.162e+02     
-179.000         -90.000            7.533e-03           5.239e-03              93.496           2.295e-03             210.474           1.916e+00     
-178.000         -90.000            2.021e-02           1.788e-02              93.768           2.326e-03             210.667           3.201e+00     
-177.000         -90.000            3.294e-02           3.057e-02              94.417           2.371e-03             210.788           4.073e+00     
-176.000         -90.000            3.837e-02           3.595e-02              95.641           2.417e-03             210.587           4.308e+00     
-175.000         -90.000            3.346e-02           3.102e-02              97.983           2.446e-03             209.792           3.880e+00     
-174.000         -90.000            2.125e-02           1.882e-02             103.019           2.439e-03             208.134           2.906e+00     
-173.000         -90.000            9.065e-03           6.686e-03             117.425           2.378e-03             205.371           1.679e+00     
-172.000         -90.000            4.194e-03           1.937e-03             179.490           2.257e-03             201.267           5.215e+00     
-171.000         -90.000            9.662e-03           7.583e-03             235.957           2.079e-03             195.585           3.468e+00     
-170.000         -90.000            2.245e-02           2.059e-02             249.475           1.864e-03             188.080           3.870e+00     
-169.000         -90.000            3.528e-02           3.363e-02             255.172           1.640e-03             178.528           4.667e+00     
-168.000         -90.000            4.080e-02           3.936e-02             259.229           1.441e-03             166.827           5.232e+00     
-167.000         -90.000            3.593e-02           3.464e-02             263.889           1.292e-03             153.166           5.564e+00     
-166.000         -90.000            2.362e-02           2.242e-02             271.819           1.206e-03             138.156           6.118e+00     
-165.000         -90.000            1.128e-02           1.010e-02             290.483           1.178e-03             122.717           1.537e+01     
-164.000         -90.000            6.600e-03           5.411e-03             338.731           1.189e-03             107.684           3.014e+00     
-163.000         -90.000            1.324e-02           1.203e-02              23.318           1.210e-03              93.479           3.394e+00     
