Theta [deg.]  Phi   [deg.]  Abs(Dir.)[      ]   Abs(Theta)[      ]  Phase(Theta)[deg.]  Abs(Phi  )[      ]  Phase(Phi  )[deg.]  Ax.Ratio[      ]    
------------------------------------------------------------------------------------------------------------------------------------------------------
-180.000         -90.000            1.078e-02           1.626e-06             334.637           1.078e-02              27.572           1.021e+02     
-179.000         -90.000            1.775e-02           6.122e-03             296.219           1.163e-02              26.785           1.379e+00     
-178.000         -90.000            3.277e-02           1.854e-02             296.185           1.424e-02              24.374           1.145e+00     
-177.000         -90.000            4.444e-02           2.574e-02             296.704           1.869e-02              21.031           1.207e+00     
-176.000         -90.000            4.597e-02           2.112e-02             298.155           2.485e-02              17.291           1.231e+00     
-175.000         -90.000            4.110e-02           9.070e-03             302.658           3.203e-02              13.359           2.072e+00     
-174.000         -90.000            3.983e-02           7.836e-04             336.324           3.905e-02               9.224           1.318e+01     
-173.000         -90.000            4.818e-02           3.784e-03              91.808           4.440e-02               4.771           3.431e+00     
-172.000         -90.000            6.170e-02           1.493e-02             101.764           4.678e-02             359.834           1.845e+00     
-171.000         -90.000            6.896e-02           2.344e-02             104.700           4.552e-02             354.207           1.646e+00     
-170.000         -90.000            6.200e-02           2.111e-02             106.947           4.089e-02             347.616           1.892e+00     
-169.000         -90.000            4.405e-02           1.007e-02             111.593           3.398e-02             339.687           2.848e+00     
-168.000         -90.000            2.748e-02           1.127e-03             141.210           2.635e-02             329.915           3.329e+01     
-167.000         -90.000            2.348e-02           3.977e-03             257.030           1.950e-02             317.713           2.685e+00     
-166.000         -90.000            3.267e-02           1.828e-02             268.273           1.439e-02             302.730           3.253e+00     
-165.000         -90.000            4.476e-02           3.346e-02             270.881           1.130e-02             285.620           8.936e+00     
-164.000         -90.000            4.740e-02           3.755e-02             272.158           9.849e-03             268.539           3.902e+01     
-163.000         -90.000            3.656e-02           2.722e-02             274.005           9.345e-03             254.004           6.550e+00     
