Theta [deg.]  Phi   [deg.]  Abs(Dir.)[      ]   Abs(Theta)[      ]  Phase(Theta)[deg.]  Abs(Phi  )[      ]  Phase(Phi  )[deg.]  Ax.Ratio[      ]    
------------------------------------------------------------------------------------------------------------------------------------------------------
-180.000         -90.000            1.140e-02           2.646e-08             103.553           1.140e-02             320.046           3.162e+02     
-179.000         -90.000            1.538e-02           4.001e-03              58.275           1.138e-02             319.049           1.732e+00     
-178.000         -90.000            2.569e-02           1.433e-02              58.271           1.136e-02             316.109           1.276e+00     
-177.000         -90.000            3.814e-02           2.674e-02              58.354           1.140e-02             311.406           1.693e+00     
-176.000         -90.000            4.773e-02           3.611e-02              58.534           1.162e-02             305.268           2.049e+00     
-175.000         -90.000            5.068e-02           3.859e-02              58.874           1.209e-02             298.166           2.293e+00     
-174.000         -90.000            4.597e-02           3.313e-02              59.516           1.284e-02             290.631           2.457e+00     
-173.000         -90.000            3.580e-02           2.199e-02              60.818           1.382e-02             283.123           2.679e+00     
-172.000         -90.000            2.467e-02           9.762e-03              64.025           1.491e-02             275.935           3.590e+00     
-171.000         -90.000            1.751e-02           1.598e-03              78.239           1.591e-02             269.176           1.825e+01     
-170.000         -90.000            1.772e-02           1.082e-03             206.395           1.664e-02             262.812           4.806e+00     
-169.000         -90.000            2.570e-02           8.806e-03             225.719           1.690e-02             256.716           3.831e+00     
-168.000         -90.000            3.869e-02           2.212e-02             229.801           1.657e-02             250.716           5.478e+00     
-167.000         -90.000            5.180e-02           3.616e-02             231.926           1.564e-02             244.605           9.822e+00     
-166.000         -90.000            5.992e-02           4.574e-02             233.744           1.417e-02             238.148           3.061e+01     
-165.000         -90.000            5.973e-02           4.740e-02             235.934           1.233e-02             231.079           2.916e+01     
-164.000         -90.000            5.100e-02           4.069e-02             239.200           1.031e-02             223.078           8.853e+00     
-163.000         -90.000            3.672e-02           2.837e-02             244.863           8.349e-03             213.775           4.393e+00     
