Theta [deg.]  Phi   [deg.]  Abs(Dir.)[      ]   Abs(Theta)[      ]  Phase(Theta)[deg.]  Abs(Phi  )[      ]  Phase(Phi  )[deg.]  Ax.Ratio[      ]    
------------------------------------------------------------------------------------------------------------------------------------------------------
-180.000         -90.000            1.023e-02           1.699e-06             173.000           1.023e-02             241.786           8.324e+01     
-179.000         -90.000            1.581e-02           5.965e-03              53.078           9.845e-03             240.729           1.543e+01     
-178.000         -90.000            2.896e-02           2.001e-02              52.952           8.945e-03             237.542           2.700e+01     
-177.000         -90.000            4.042e-02           3.267e-02              53.407           7.746e-03             232.027           1.055e+02     
-176.000         -90.000            4.199e-02           3.548e-02              54.500           6.518e-03             223.967           1.504e+01     
-175.000         -90.000            3.215e-02           2.665e-02              56.891           5.501e-03             213.370           6.500e+00     
-174.000         -90.000            1.713e-02           1.230e-02              63.108           4.835e-03             200.833           2.966e+00     
-173.000         -90.000            6.743e-03           2.210e-03              91.396           4.533e-03             187.683           1.457e+00     
-172.000         -90.000            7.702e-03           3.207e-03             189.839           4.495e-03             175.474           8.052e+00     
-171.000         -90.000            1.911e-02           1.456e-02             210.579           4.558e-03             165.233           2.961e+00     
-170.000         -90.000            3.305e-02           2.849e-02             216.221           4.559e-03             157.294           3.059e+00     
-169.000         -90.000            3.987e-02           3.548e-02             219.244           4.386e-03             151.616           3.137e+00     
-168.000         -90.000            3.471e-02           3.070e-02             222.189           4.010e-03             148.108           2.909e+00     
-167.000         -90.000            2.083e-02           1.735e-02             227.401           3.479e-03             146.777           2.278e+00     
-166.000         -90.000            7.573e-03           4.683e-03             244.601           2.891e-03             147.715           1.310e+00     
-165.000         -90.000            4.355e-03           2.006e-03             334.912           2.349e-03             150.945           2.897e+01     
-164.000         -90.000            1.449e-02           1.256e-02              12.478           1.926e-03             156.105           4.757e+00     
-163.000         -90.000            3.288e-02           3.125e-02              20.301           1.636e-03             162.120           7.304e+00     
