Theta [deg.]  Phi   [deg.]  Abs(Dir.)[      ]   Abs(Theta)[      ]  Phase(Theta)[deg.]  Abs(Phi  )[      ]  Phase(Phi  )[deg.]  Ax.Ratio[      ]    
------------------------------------------------------------------------------------------------------------------------------------------------------
-180.000         -90.000            1.820e-03           4.191e-08             237.493           1.820e-03             259.908           3.162e+02     
-179.000         -90.000            5.188e-03           3.369e-03             357.529           1.819e-03             259.443           1.405e+00     
-178.000         -90.000            1.454e-02           1.273e-02             357.771           1.817e-03             258.076           2.697e+00     
-177.000         -90.000            2.773e-02           2.592e-02             358.060           1.816e-03             255.842           3.878e+00     
-176.000         -90.000            4.172e-02           3.991e-02             358.476           1.815e-03             252.794           4.887e+00     
-175.000         -90.000            5.331e-02           5.150e-02             359.083           1.815e-03             248.998           5.696e+00     
-174.000         -90.000            5.988e-02           5.806e-02             359.968           1.815e-03             244.524           6.301e+00     
-173.000         -90.000            5.996e-02           5.815e-02               1.280           1.814e-03             239.435           6.724e+00     
-172.000         -90.000            5.365e-02           5.184e-02               3.276           1.811e-03             233.777           7.033e+00     
-171.000         -90.000            4.250e-02           4.070e-02               6.462           1.805e-03             227.575           7.408e+00     
-170.000         -90.000            2.925e-02           2.746e-02              11.943           1.795e-03             220.828           8.509e+00     
-169.000         -90.000            1.714e-02           1.535e-02              22.494           1.783e-03             213.519           1.707e+01     
-168.000         -90.000            9.190e-03           7.417e-03              45.585           1.773e-03             205.625           7.286e+00     
-167.000         -90.000            7.541e-03           5.768e-03              88.113           1.773e-03             197.140           1.992e+00     
-166.000         -90.000            1.294e-02           1.114e-02             121.824           1.791e-03             188.101           2.806e+00     
-165.000         -90.000            2.457e-02           2.273e-02             137.476           1.840e-03             178.620           5.596e+00     
-164.000         -90.000            4.027e-02           3.834e-02             145.301           1.930e-03             168.888           1.161e+01     
-163.000         -90.000            5.695e-02           5.488e-02             149.942           2.074e-03             159.164           3.328e+01     
