Theta [deg.]  Phi   [deg.]  Abs(Dir.)[      ]   Abs(Theta)[      ]  Phase(Theta)[deg.]  Abs(Phi  )[      ]  Phase(Phi  )[deg.]  Ax.Ratio[      ]    
------------------------------------------------------------------------------------------------------------------------------------------------------
-180.000         -90.000            1.263e-02           2.043e-06             354.766           1.263e-02              54.213           9.130e+01     
-179.000         -90.000            1.868e-02           6.462e-03             282.061           1.221e-02              53.010           2.359e+00     
-178.000         -90.000            3.245e-02           2.116e-02             281.814           1.129e-02              49.484           2.197e+00     
-177.000         -90.000            4.383e-02           3.373e-02             282.152           1.010e-02              43.518           2.357e+00     
-176.000         -90.000            4.433e-02           3.538e-02             283.078           8.957e-03              35.096           2.240e+00     
-175.000         -90.000            3.320e-02           2.507e-02             285.212           8.125e-03              24.588           1.803e+00     
-174.000         -90.000            1.794e-02           1.020e-02             291.189           7.737e-03              12.942           1.222e+00     
-173.000         -90.000            8.932e-03           1.166e-03             327.306           7.766e-03               1.484           5.087e+00     
-172.000         -90.000            1.204e-02           3.994e-03              71.982           8.042e-03             351.324           1.474e+00     
-171.000         -90.000            2.448e-02           1.616e-02              85.556           8.320e-03             342.990           1.493e+00     
-170.000         -90.000            3.694e-02           2.857e-02              90.018           8.371e-03             336.539           2.136e+00     
-169.000         -90.000            4.027e-02           3.222e-02              93.322           8.049e-03             331.830           2.538e+00     
-168.000         -90.000            3.196e-02           2.462e-02              97.940           7.337e-03             328.709           2.699e+00     
-167.000         -90.000            1.793e-02           1.160e-02             108.478           6.330e-03             327.075           3.024e+00     
-166.000         -90.000            8.291e-03           3.099e-03             148.316           5.192e-03             326.851           8.081e+01     
-165.000         -90.000            1.020e-02           6.110e-03             219.905           4.089e-03             327.895           1.461e+00     
-164.000         -90.000            2.281e-02           1.967e-02             240.294           3.135e-03             329.849           2.505e+00     
-163.000         -90.000            3.772e-02           3.534e-02             247.165           2.373e-03             331.944           3.878e+00     
