Theta [deg.]  Phi   [deg.]  Abs(Dir.)[      ]   Abs(Theta)[      ]  Phase(Theta)[deg.]  Abs(Phi  )[      ]  Phase(Phi  )[deg.]  Ax.Ratio[      ]    
------------------------------------------------------------------------------------------------------------------------------------------------------
-180.000         -90.000            2.558e-02           9.401e-09              59.966           2.558e-02              74.476           3.162e+02     
-179.000         -90.000            2.904e-02           3.943e-03             346.484           2.510e-02              73.820           2.527e+00     
-178.000         -90.000            3.855e-02           1.483e-02             346.588           2.371e-02              71.816           1.283e+00     
-177.000         -90.000            5.174e-02           3.011e-02             346.785           2.163e-02              68.324           1.249e+00     
-176.000         -90.000            6.536e-02           4.619e-02             347.097           1.916e-02              63.107           1.662e+00     
-175.000         -90.000            7.601e-02           5.933e-02             347.562           1.668e-02              55.863           2.131e+00     
-174.000         -90.000            8.105e-02           6.647e-02             348.245           1.457e-02              46.323           2.697e+00     
-173.000         -90.000            7.920e-02           6.600e-02             349.258           1.320e-02              34.506           3.492e+00     
-172.000         -90.000            7.093e-02           5.808e-02             350.800           1.285e-02              21.044           4.953e+00     
-171.000         -90.000            5.834e-02           4.466e-02             353.283           1.368e-02               7.202           9.708e+00     
-170.000         -90.000            4.470e-02           2.896e-02             357.606           1.574e-02             354.313           3.642e+01     
-169.000         -90.000            3.367e-02           1.475e-02               6.359           1.892e-02             343.111           4.902e+00     
-168.000         -90.000            2.849e-02           5.484e-03              28.926           2.300e-02             333.673           2.719e+00     
-167.000         -90.000            3.113e-02           3.467e-03              84.666           2.766e-02             325.724           3.332e+00     
-166.000         -90.000            4.189e-02           9.380e-03             123.906           3.251e-02             318.914           9.154e+00     
-165.000         -90.000            5.926e-02           2.211e-02             137.997           3.714e-02             312.928           2.336e+01     
-164.000         -90.000            8.020e-02           3.903e-02             144.600           4.117e-02             307.522           6.663e+00     
-163.000         -90.000            1.009e-01           5.659e-02             148.650           4.426e-02             302.512           4.344e+00     
