Theta [deg.]  Phi   [deg.]  Abs(Dir.)[      ]   Abs(Theta)[      ]  Phase(Theta)[deg.]  Abs(Phi  )[      ]  Phase(Phi  )[deg.]  Ax.Ratio[      ]    
------------------------------------------------------------------------------------------------------------------------------------------------------
-180.000         -90.000            1.635e-02           2.895e-06              88.419           1.635e-02             131.886           1.093e+02     
-179.000         -90.000            2.355e-02           7.672e-03              82.436           1.588e-02             130.351           2.470e+00     
-178.000         -90.000            3.915e-02           2.424e-02              82.507           1.491e-02             126.042           2.606e+00     
-177.000         -90.000            5.073e-02           3.689e-02              82.780           1.384e-02             119.008           3.514e+00     
-176.000         -90.000            4.899e-02           3.588e-02              83.412           1.311e-02             109.662           4.903e+00     
-175.000         -90.000            3.506e-02           2.203e-02              84.963           1.303e-02              99.021           8.400e+00     
-174.000         -90.000            1.973e-02           6.088e-03              90.434           1.364e-02              88.480           6.347e+01     
-173.000         -90.000            1.501e-02           3.202e-04             203.282           1.469e-02              79.170           8.238e+00     
-172.000         -90.000            2.485e-02           9.110e-03             251.148           1.574e-02              71.565           2.857e+02     
-171.000         -90.000            4.203e-02           2.572e-02             255.622           1.631e-02              65.612           1.172e+01     
-170.000         -90.000            5.367e-02           3.763e-02             258.120           1.604e-02              61.035           7.299e+00     
-169.000         -90.000            5.097e-02           3.615e-02             261.180           1.483e-02              57.516           5.297e+00     
-168.000         -90.000            3.570e-02           2.286e-02             267.112           1.284e-02              54.761           3.618e+00     
-167.000         -90.000            1.856e-02           8.150e-03             284.085           1.041e-02              52.481           2.093e+00     
-166.000         -90.000            1.100e-02           3.087e-03             348.828           7.913e-03              50.337           2.043e+00     
-165.000         -90.000            1.674e-02           1.106e-02              37.674           5.683e-03              47.849           1.187e+01     
-164.000         -90.000            2.936e-02           2.546e-02              50.759           3.903e-03              44.264           2.600e+01     
-163.000         -90.000            3.763e-02           3.500e-02              57.111           2.630e-03              38.466           1.219e+01     
