Theta [deg.]  Phi   [deg.]  Abs(Dir.)[      ]   Abs(Theta)[      ]  Phase(Theta)[deg.]  Abs(Phi  )[      ]  Phase(Phi  )[deg.]  Ax.Ratio[      ]    
------------------------------------------------------------------------------------------------------------------------------------------------------
-180.000         -90.000            3.662e-02           8.034e-08             267.104           3.662e-02              83.412           3.162e+02     
-179.000         -90.000            3.993e-02           3.687e-03              60.102           3.624e-02              82.857           8.817e+00     
-178.000         -90.000            4.883e-02           1.369e-02              60.255           3.514e-02              81.172           6.071e+00     
-177.000         -90.000            6.045e-02           2.699e-02              60.445           3.347e-02              78.329           6.394e+00     
-176.000         -90.000            7.100e-02           3.957e-02              60.731           3.143e-02              74.293           8.467e+00     
-175.000         -90.000            7.695e-02           4.765e-02              61.170           2.930e-02              69.042           1.497e+01     
-174.000         -90.000            7.615e-02           4.882e-02              61.858           2.733e-02              62.606           1.595e+02     
-173.000         -90.000            6.853e-02           4.279e-02              62.973           2.574e-02              55.102           1.501e+01     
-172.000         -90.000            5.609e-02           3.141e-02              64.900           2.468e-02              46.757           6.311e+00     
-171.000         -90.000            4.237e-02           1.815e-02              68.651           2.422e-02              37.901           3.681e+00     
-170.000         -90.000            3.134e-02           7.030e-03              77.947           2.431e-02              28.900           2.820e+00     
-169.000         -90.000            2.624e-02           1.400e-03             117.084           2.484e-02              20.070           4.247e+00     
-168.000         -90.000            2.858e-02           2.977e-03             198.159           2.560e-02              11.618           2.870e+01     
-167.000         -90.000            3.772e-02           1.134e-02             217.898           2.638e-02               3.622           3.594e+00     
-166.000         -90.000            5.103e-02           2.410e-02             224.446           2.693e-02             356.059           2.231e+00     
-165.000         -90.000            6.467e-02           3.759e-02             228.024           2.708e-02             348.837           1.807e+00     
-164.000         -90.000            7.470e-02           4.803e-02             230.772           2.667e-02             341.830           1.619e+00     
-163.000         -90.000            7.823e-02           5.256e-02             233.542           2.567e-02             334.898           1.510e+00     
