Theta [deg.]  Phi   [deg.]  Abs(Dir.)[      ]   Abs(Theta)[      ]  Phase(Theta)[deg.]  Abs(Phi  )[      ]  Phase(Phi  )[deg.]  Ax.Ratio[      ]    
------------------------------------------------------------------------------------------------------------------------------------------------------
-180.000         -90.000            7.848e-04           1.139e-08             340.003           7.848e-04             102.539           3.113e+02     
-179.000         -90.000            5.063e-03           4.271e-03             135.233           7.921e-04             102.259           4.852e+00     
-178.000         -90.000            1.589e-02           1.508e-02             135.419           8.118e-04             101.410           7.995e+00     
-177.000         -90.000            2.813e-02           2.729e-02             135.758           8.401e-04              99.992           9.951e+00     
-176.000         -90.000            3.601e-02           3.514e-02             136.360           8.713e-04              97.999           1.039e+01     
-175.000         -90.000            3.583e-02           3.493e-02             137.442           8.975e-04              95.399           9.449e+00     
-174.000         -90.000            2.775e-02           2.684e-02             139.511           9.105e-04              92.134           7.495e+00     
-173.000         -90.000            1.569e-02           1.478e-02             144.060           9.029e-04              88.093           4.980e+00     
-172.000         -90.000            5.446e-03           4.576e-03             157.955           8.704e-04              83.114           2.413e+00     
-171.000         -90.000            1.968e-03           1.155e-03             230.169           8.134e-04              76.971           4.270e+00     
-170.000         -90.000            7.020e-03           6.282e-03             284.325           7.383e-04              69.364           5.507e+00     
-169.000         -90.000            1.838e-02           1.772e-02             295.370           6.565e-04              59.951           6.388e+00     
-168.000         -90.000            3.090e-02           3.032e-02             299.959           5.829e-04              48.455           7.620e+00     
-167.000         -90.000            3.895e-02           3.841e-02             303.112           5.324e-04              34.909           8.499e+00     
-166.000         -90.000            3.900e-02           3.848e-02             306.436           5.158e-04              19.949           9.018e+00     
-165.000         -90.000            3.126e-02           3.073e-02             311.278           5.382e-04               4.786           9.457e+00     
-164.000         -90.000            1.960e-02           1.900e-02             320.254           5.955e-04             350.651           1.143e+01     
-163.000         -90.000            9.711e-03           9.035e-03             340.697           6.757e-04             338.192           8.990e+01     
