Theta [deg.]  Phi   [deg.]  Abs(Dir.)[      ]   Abs(Theta)[      ]  Phase(Theta)[deg.]  Abs(Phi  )[      ]  Phase(Phi  )[deg.]  Ax.Ratio[      ]    
------------------------------------------------------------------------------------------------------------------------------------------------------
-180.000         -90.000            9.945e-04           1.491e-08             102.973           9.945e-04             241.563           3.162e+02     
-179.000         -90.000            4.296e-03           3.343e-03             129.602           9.535e-04             239.795           2.084e+00     
-178.000         -90.000            1.352e-02           1.268e-02             129.745           8.439e-04             234.204           4.021e+00     
-177.000         -90.000            2.685e-02           2.614e-02             129.928           7.109e-04             223.683           6.078e+00     
-176.000         -90.000            4.167e-02           4.105e-02             130.193           6.234e-04             207.016           8.341e+00     
-175.000         -90.000            5.510e-02           5.443e-02             130.576           6.644e-04             185.506           1.110e+01     
-174.000         -90.000            6.457e-02           6.365e-02             131.127           9.204e-04             164.683           1.520e+01     
-173.000         -90.000            6.839e-02           6.692e-02             131.923           1.470e-03             148.728           2.381e+01     
-172.000         -90.000            6.602e-02           6.364e-02             133.091           2.372e-03             137.457           7.057e+01     
-171.000         -90.000            5.822e-02           5.456e-02             134.859           3.660e-03             129.304           4.254e+01     
-170.000         -90.000            4.689e-02           4.156e-02             137.661           5.327e-03             123.034           1.240e+01     
-169.000         -90.000            3.465e-02           2.732e-02             142.461           7.336e-03             117.885           5.711e+00     
-168.000         -90.000            2.436e-02           1.475e-02             151.752           9.610e-03             113.408           2.960e+00     
-167.000         -90.000            1.849e-02           6.452e-03             173.060           1.204e-02             109.327           1.777e+00     
-166.000         -90.000            1.869e-02           4.186e-03             218.519           1.450e-02             105.468           2.139e+00     
-165.000         -90.000            2.540e-02           8.549e-03             256.911           1.685e-02             101.717           4.837e+00     
-164.000         -90.000            3.780e-02           1.886e-02             273.399           1.894e-02              97.990           2.495e+01     
-163.000         -90.000            5.397e-02           3.333e-02             281.249           2.064e-02              94.223           1.676e+01     
