Theta [deg.]  Phi   [deg.]  Abs(Dir.)[      ]   Abs(Theta)[      ]  Phase(Theta)[deg.]  Abs(Phi  )[      ]  Phase(Phi  )[deg.]  Ax.Ratio[      ]    
------------------------------------------------------------------------------------------------------------------------------------------------------
-180.000         -90.000            1.931e-03           3.146e-08             242.881           1.931e-03             298.225           3.012e+02     
-179.000         -90.000            6.983e-03           5.035e-03             151.375           1.947e-03             298.382           3.834e+00     
-178.000         -90.000            1.926e-02           1.726e-02             151.604           1.996e-03             298.754           5.879e+00     
-177.000         -90.000            3.178e-02           2.971e-02             152.176           2.067e-03             299.138           7.301e+00     
-176.000         -90.000            3.746e-02           3.531e-02             153.267           2.146e-03             299.256           7.560e+00     
-175.000         -90.000            3.316e-02           3.095e-02             155.364           2.211e-03             298.818           6.580e+00     
-174.000         -90.000            2.150e-02           1.926e-02             159.858           2.237e-03             297.546           4.650e+00     
-173.000         -90.000            9.330e-03           7.129e-03             172.489           2.201e-03             295.193           2.379e+00     
-172.000         -90.000            3.845e-03           1.753e-03             229.591           2.091e-03             291.506           1.681e+00     
-171.000         -90.000            8.461e-03           6.550e-03             292.705           1.911e-03             286.198           2.106e+01     
-170.000         -90.000            2.087e-02           1.918e-02             307.027           1.683e-03             278.926           7.665e+00     
-169.000         -90.000            3.429e-02           3.284e-02             312.596           1.443e-03             269.311           7.123e+00     
-168.000         -90.000            4.131e-02           4.007e-02             316.228           1.233e-03             257.085           6.695e+00     
-167.000         -90.000            3.802e-02           3.694e-02             320.072           1.088e-03             242.404           5.972e+00     
-166.000         -90.000            2.632e-02           2.529e-02             326.242           1.024e-03             226.179           5.055e+00     
-165.000         -90.000            1.290e-02           1.187e-02             340.240           1.034e-03             209.865           4.619e+00     
-164.000         -90.000            5.740e-03           4.649e-03              21.854           1.091e-03             194.665           2.032e+01     
-163.000         -90.000            9.740e-03           8.584e-03              77.478           1.156e-03             180.977           2.826e+00     
