Theta [deg.]  Phi   [deg.]  Abs(Dir.)[      ]   Abs(Theta)[      ]  Phase(Theta)[deg.]  Abs(Phi  )[      ]  Phase(Phi  )[deg.]  Ax.Ratio[      ]    
------------------------------------------------------------------------------------------------------------------------------------------------------
-180.000         -90.000            1.970e-02           2.114e-09             275.499           1.970e-02              60.935           3.162e+02     
-179.000         -90.000            2.396e-02           4.566e-03             328.467           1.939e-02              60.431           2.063e+00     
-178.000         -90.000            3.499e-02           1.647e-02             328.680           1.852e-02              58.918           1.061e+00     
-177.000         -90.000            4.820e-02           3.106e-02             329.056           1.714e-02              56.360           1.351e+00     
-176.000         -90.000            5.799e-02           4.263e-02             329.679           1.536e-02              52.687           1.692e+00     
-175.000         -90.000            6.000e-02           4.670e-02             330.698           1.331e-02              47.774           1.959e+00     
-174.000         -90.000            5.283e-02           4.170e-02             332.418           1.113e-02              41.418           2.165e+00     
-173.000         -90.000            3.869e-02           2.969e-02             335.553           8.993e-03              33.286           2.380e+00     
-172.000         -90.000            2.254e-02           1.549e-02             342.242           7.053e-03              22.874           2.976e+00     
-171.000         -90.000            1.034e-02           4.878e-03               2.021           5.464e-03               9.487           1.535e+01     
-170.000         -90.000            6.715e-03           2.355e-03              71.527           4.360e-03             352.487           1.440e+00     
-169.000         -90.000            1.323e-02           9.381e-03             114.247           3.846e-03             332.113           3.283e+00     
-168.000         -90.000            2.782e-02           2.383e-02             126.057           3.990e-03             310.425           3.743e+01     
-167.000         -90.000            4.558e-02           4.077e-02             131.474           4.808e-03             290.351           8.922e+00     
-166.000         -90.000            6.057e-02           5.432e-02             135.133           6.258e-03             273.418           4.726e+00     
-165.000         -90.000            6.811e-02           5.987e-02             138.584           8.241e-03             259.489           3.268e+00     
-164.000         -90.000            6.637e-02           5.576e-02             142.798           1.061e-02             247.822           2.411e+00     
-163.000         -90.000            5.707e-02           4.392e-02             149.031           1.315e-02             237.721           1.828e+00     
