Theta [deg.]  Phi   [deg.]  Abs(Dir.)[      ]   Abs(Theta)[      ]  Phase(Theta)[deg.]  Abs(Phi  )[      ]  Phase(Phi  )[deg.]  Ax.Ratio[      ]    
------------------------------------------------------------------------------------------------------------------------------------------------------
-180.000         -90.000            7.459e-03           2.136e-07              88.768           7.459e-03             158.637           1.990e+02     
-179.000         -90.000            1.032e-02           2.841e-03             104.343           7.478e-03             158.870           2.317e+00     
-178.000         -90.000            1.710e-02           9.571e-03             104.722           7.525e-03             159.512           1.954e+00     
-177.000         -90.000            2.372e-02           1.615e-02             105.373           7.566e-03             160.378           2.155e+00     
-176.000         -90.000            2.620e-02           1.866e-02             106.547           7.540e-03             161.214           2.266e+00     
-175.000         -90.000            2.302e-02           1.565e-02             108.788           7.368e-03             161.749           2.239e+00     
-174.000         -90.000            1.598e-02           9.007e-03             113.710           6.973e-03             161.731           2.272e+00     
-173.000         -90.000            9.105e-03           2.804e-03             128.878           6.301e-03             160.930           3.820e+00     
-172.000         -90.000            6.176e-03           8.265e-04             203.553           5.350e-03             159.110           3.941e+00     
-171.000         -90.000            8.498e-03           4.310e-03             253.854           4.188e-03             155.945           1.149e+00     
-170.000         -90.000            1.417e-02           1.122e-02             264.897           2.952e-03             150.872           2.252e+00     
-169.000         -90.000            1.931e-02           1.749e-02             270.007           1.813e-03             142.682           4.065e+00     
-168.000         -90.000            2.043e-02           1.949e-02             274.170           9.371e-04             128.412           8.375e+00     
-167.000         -90.000            1.660e-02           1.616e-02             279.589           4.386e-04             100.728           3.136e+02     
-166.000         -90.000            1.003e-02           9.684e-03             289.644           3.437e-04              55.863           6.663e+00     
-165.000         -90.000            4.766e-03           4.179e-03             314.631           5.864e-04              20.039           3.016e+00     
-164.000         -90.000            4.355e-03           3.325e-03               7.875           1.030e-03             359.471           1.604e+01     
-163.000         -90.000            9.723e-03           8.210e-03              42.725           1.512e-03             345.244           2.931e+00     
