Theta [deg.]  Phi   [deg.]  Abs(Dir.)[      ]   Abs(Theta)[      ]  Phase(Theta)[deg.]  Abs(Phi  )[      ]  Phase(Phi  )[deg.]  Ax.Ratio[      ]    
------------------------------------------------------------------------------------------------------------------------------------------------------
-180.000         -90.000            4.953e-03           1.641e-06              56.821           4.951e-03              94.516           8.984e+01     
-179.000         -90.000            1.007e-02           5.285e-03              54.269           4.788e-03              93.082           2.843e+00     
-178.000         -90.000            2.287e-02           1.848e-02              54.346           4.388e-03              89.028           4.226e+00     
-177.000         -90.000            3.770e-02           3.382e-02              54.538           3.875e-03              82.004           6.996e+00     
-176.000         -90.000            4.805e-02           4.463e-02              54.890           3.414e-03              71.680           1.340e+01     
-175.000         -90.000            4.945e-02           4.628e-02              55.511           3.170e-03              58.308           8.367e+01     
-174.000         -90.000            4.144e-02           3.818e-02              56.644           3.259e-03              43.356           1.610e+01     
-173.000         -90.000            2.767e-02           2.395e-02              58.920           3.719e-03              29.058           5.713e+00     
-172.000         -90.000            1.423e-02           9.737e-03              64.632           4.494e-03              16.934           2.510e+00     
-171.000         -90.000            6.907e-03           1.465e-03              91.538           5.442e-03               7.224           1.944e+00     
-170.000         -90.000            8.584e-03           2.220e-03             197.767           6.364e-03             359.467           7.133e+00     
-169.000         -90.000            1.806e-02           1.101e-02             216.927           7.049e-03             353.070           2.569e+00     
-168.000         -90.000            3.068e-02           2.335e-02             222.263           7.327e-03             347.521           2.467e+00     
-167.000         -90.000            4.050e-02           3.339e-02             225.306           7.101e-03             342.406           2.564e+00     
-166.000         -90.000            4.297e-02           3.659e-02             228.124           6.379e-03             337.363           2.593e+00     
-165.000         -90.000            3.697e-02           3.170e-02             231.886           5.266e-03             332.013           2.508e+00     
-164.000         -90.000            2.522e-02           2.127e-02             238.409           3.943e-03             325.846           2.326e+00     
-163.000         -90.000            1.307e-02           1.044e-02             252.726           2.625e-03             317.990           2.316e+00     
