Theta [deg.]  Phi   [deg.]  Abs(Dir.)[      ]   Abs(Theta)[      ]  Phase(Theta)[deg.]  Abs(Phi  )[      ]  Phase(Phi  )[deg.]  Ax.Ratio[      ]    
------------------------------------------------------------------------------------------------------------------------------------------------------
-180.000         -90.000            1.526e-03           8.378e-07             127.593           1.525e-03             149.418           1.148e+02     
-179.000         -90.000            6.578e-03           5.055e-03              53.479           1.523e-03             148.736           1.836e+00     
-178.000         -90.000            1.960e-02           1.809e-02              53.279           1.517e-03             146.720           3.460e+00     
-177.000         -90.000            3.529e-02           3.378e-02              53.476           1.507e-03             143.469           4.735e+00     
-176.000         -90.000            4.725e-02           4.576e-02              53.976           1.488e-03             139.120           5.566e+00     
-175.000         -90.000            5.067e-02           4.922e-02              54.907           1.458e-03             133.815           5.927e+00     
-174.000         -90.000            4.426e-02           4.285e-02              56.594           1.410e-03             127.657           5.848e+00     
-173.000         -90.000            3.073e-02           2.939e-02              59.855           1.339e-03             120.681           5.426e+00     
-172.000         -90.000            1.570e-02           1.445e-02              67.237           1.242e-03             112.808           4.988e+00     
-171.000         -90.000            5.320e-03           4.199e-03              90.737           1.121e-03             103.829           1.073e+01     
-170.000         -90.000            3.813e-03           2.827e-03             163.725           9.859e-04              93.402           1.899e+00     
-169.000         -90.000            1.174e-02           1.089e-02             198.965           8.550e-04              81.097           4.110e+00     
-168.000         -90.000            2.584e-02           2.509e-02             209.156           7.497e-04              66.582           9.701e+00     
-167.000         -90.000            4.041e-02           3.972e-02             213.972           6.913e-04              50.015           2.787e+01     
-166.000         -90.000            4.964e-02           4.895e-02             217.348           6.950e-04              32.459           9.984e+01     
-165.000         -90.000            4.998e-02           4.922e-02             220.754           7.643e-04              15.581           1.911e+01     
-164.000         -90.000            4.157e-02           4.068e-02             225.407           8.886e-04               0.659           9.718e+00     
-163.000         -90.000            2.815e-02           2.711e-02             233.378           1.044e-03             348.052           5.647e+00     
