Theta [deg.]  Phi   [deg.]  Abs(Dir.)[      ]   Abs(Theta)[      ]  Phase(Theta)[deg.]  Abs(Phi  )[      ]  Phase(Phi  )[deg.]  Ax.Ratio[      ]    
------------------------------------------------------------------------------------------------------------------------------------------------------
-180.000         -90.000            1.986e-02           7.621e-09             103.495           1.986e-02             246.285           3.162e+02     
-179.000         -90.000            2.373e-02           4.230e-03              94.491           1.950e-02             245.717           5.237e+00     
-178.000         -90.000            3.383e-02           1.536e-02              94.682           1.847e-02             243.983           3.661e+00     
-177.000         -90.000            4.625e-02           2.937e-02              95.050           1.688e-02             241.017           3.419e+00     
-176.000         -90.000            5.607e-02           4.119e-02              95.658           1.488e-02             236.698           3.299e+00     
-175.000         -90.000            5.925e-02           4.658e-02              96.633           1.267e-02             230.828           3.076e+00     
-174.000         -90.000            5.409e-02           4.363e-02              98.229           1.046e-02             223.112           2.719e+00     
-173.000         -90.000            4.197e-02           3.352e-02             100.999           8.444e-03             213.138           2.248e+00     
-172.000         -90.000            2.681e-02           2.001e-02             106.386           6.796e-03             200.439           1.725e+00     
-171.000         -90.000            1.385e-02           8.188e-03             119.579           5.660e-03             184.716           1.628e+00     
-170.000         -90.000            7.711e-03           2.574e-03             164.253           5.137e-03             166.405           5.645e+01     
-169.000         -90.000            1.081e-02           5.526e-03             225.800           5.284e-03             147.084           1.221e+00     
-168.000         -90.000            2.250e-02           1.639e-02             245.598           6.112e-03             128.797           2.025e+00     
-167.000         -90.000            3.932e-02           3.174e-02             253.311           7.579e-03             112.775           3.720e+00     
-166.000         -90.000            5.614e-02           4.655e-02             257.748           9.597e-03              99.146           7.141e+00     
-165.000         -90.000            6.804e-02           5.601e-02             261.280           1.203e-02              87.495           2.417e+01     
-164.000         -90.000            7.188e-02           5.719e-02             264.978           1.470e-02              77.322           1.856e+01     
-163.000         -90.000            6.734e-02           4.995e-02             269.799           1.740e-02              68.225           6.048e+00     
