Theta [deg.]  Phi   [deg.]  Abs(Dir.)[      ]   Abs(Theta)[      ]  Phase(Theta)[deg.]  Abs(Phi  )[      ]  Phase(Phi  )[deg.]  Ax.Ratio[      ]    
------------------------------------------------------------------------------------------------------------------------------------------------------
-180.000         -90.000            5.075e-04           5.642e-08              48.160           5.074e-04             115.307           1.029e+02     
-179.000         -90.000            5.596e-03           5.036e-03              37.469           5.603e-04             113.696           3.108e+00     
-178.000         -90.000            1.828e-02           1.755e-02              37.698           7.315e-04             109.702           5.171e+00     
-177.000         -90.000            3.230e-02           3.125e-02              38.171           1.052e-03             104.793           5.969e+00     
-176.000         -90.000            4.085e-02           3.929e-02              39.015           1.551e-03              99.899           5.816e+00     
-175.000         -90.000            3.996e-02           3.773e-02              40.518           2.231e-03              95.256           5.139e+00     
-174.000         -90.000            3.052e-02           2.747e-02              43.397           3.050e-03              90.757           4.300e+00     
-173.000         -90.000            1.773e-02           1.381e-02              49.942           3.919e-03              86.199           3.812e+00     
-172.000         -90.000            8.425e-03           3.706e-03              71.855           4.718e-03              81.376           1.210e+01     
-171.000         -90.000            7.582e-03           2.259e-03             152.644           5.323e-03              76.091           1.637e+00     
-170.000         -90.000            1.579e-02           1.015e-02             187.816           5.637e-03              70.144           1.801e+00     
-169.000         -90.000            2.894e-02           2.332e-02             197.075           5.620e-03              63.310           3.187e+00     
-168.000         -90.000            4.038e-02           3.508e-02             201.485           5.296e-03              55.316           5.125e+00     
-167.000         -90.000            4.421e-02           3.945e-02             204.776           4.752e-03              45.829           8.874e+00     
-166.000         -90.000            3.835e-02           3.423e-02             208.525           4.113e-03              34.468           3.118e+01     
-165.000         -90.000            2.566e-02           2.214e-02             214.715           3.512e-03              20.904           1.210e+01     
-164.000         -90.000            1.262e-02           9.559e-03             229.263           3.062e-03               5.116           3.018e+00     
-163.000         -90.000            6.291e-03           3.463e-03             276.286           2.828e-03             347.734           1.413e+00     
