Theta [deg.]  Phi   [deg.]  Abs(Dir.)[      ]   Abs(Theta)[      ]  Phase(Theta)[deg.]  Abs(Phi  )[      ]  Phase(Phi  )[deg.]  Ax.Ratio[      ]    
------------------------------------------------------------------------------------------------------------------------------------------------------
-180.000         -90.000            1.933e-02           1.480e-06             138.428           1.933e-02             184.039           1.599e+02     
-179.000         -90.000            2.321e-02           4.255e-03              24.991           1.896e-02             183.258           6.834e+00     
-178.000         -90.000            3.358e-02           1.556e-02              24.682           1.802e-02             181.074           4.799e+00     
-177.000         -90.000            4.636e-02           2.972e-02              24.855           1.664e-02             177.407           4.289e+00     
-176.000         -90.000            5.653e-02           4.149e-02              25.338           1.504e-02             172.141           3.875e+00     
-175.000         -90.000            5.999e-02           4.655e-02              26.211           1.345e-02             165.165           3.354e+00     
-174.000         -90.000            5.515e-02           4.309e-02              27.720           1.207e-02             156.459           2.735e+00     
-173.000         -90.000            4.357e-02           3.249e-02              30.443           1.108e-02             146.209           2.066e+00     
-172.000         -90.000            2.940e-02           1.882e-02              35.962           1.058e-02             134.898           1.389e+00     
-171.000         -90.000            1.789e-02           7.301e-03              50.181           1.059e-02             123.241           1.425e+00     
-170.000         -90.000            1.342e-02           2.385e-03              99.880           1.103e-02             111.966           1.241e+01     
-169.000         -90.000            1.788e-02           6.120e-03             157.730           1.176e-02             101.556           2.049e+00     
-168.000         -90.000            2.997e-02           1.739e-02             174.912           1.258e-02              92.192           1.229e+00     
-167.000         -90.000            4.560e-02           3.231e-02             181.464           1.329e-02              83.823           1.592e+00     
-166.000         -90.000            5.932e-02           4.564e-02             184.957           1.368e-02              76.287           2.008e+00     
-165.000         -90.000            6.626e-02           5.265e-02             187.411           1.361e-02              69.385           2.384e+00     
-164.000         -90.000            6.384e-02           5.082e-02             189.725           1.302e-02              62.916           2.735e+00     
-163.000         -90.000            5.267e-02           4.078e-02             192.666           1.189e-02              56.683           3.122e+00     
