Theta [deg.]  Phi   [deg.]  Abs(Dir.)[      ]   Abs(Theta)[      ]  Phase(Theta)[deg.]  Abs(Phi  )[      ]  Phase(Phi  )[deg.]  Ax.Ratio[      ]    
------------------------------------------------------------------------------------------------------------------------------------------------------
-180.000         -90.000            8.956e-03           1.167e-05             162.148           8.944e-03             158.908           3.162e+02     
-179.000         -90.000            1.470e-02           5.026e-03              72.647           9.670e-03             154.375           1.432e+00     
-178.000         -90.000            2.704e-02           1.483e-02              72.054           1.221e-02             145.427           1.364e+00     
-177.000         -90.000            3.631e-02           1.914e-02              73.346           1.717e-02             135.656           1.659e+00     
-176.000         -90.000            3.814e-02           1.357e-02              77.325           2.456e-02             127.159           2.298e+00     
-175.000         -90.000            3.760e-02           4.253e-03              91.468           3.335e-02             120.188           6.415e+00     
-174.000         -90.000            4.271e-02           1.192e-03             177.764           4.152e-02             114.276           6.634e+00     
-173.000         -90.000            5.428e-02           7.482e-03             223.511           4.680e-02             108.912           2.838e+00     
-172.000         -90.000            6.350e-02           1.590e-02             232.769           4.760e-02             103.683           2.587e+00     
-171.000         -90.000            6.041e-02           1.674e-02             238.220           4.367e-02              98.240           3.158e+00     
-170.000         -90.000            4.492e-02           8.775e-03             246.890           3.614e-02              92.195           5.726e+00     
-169.000         -90.000            2.849e-02           1.455e-03             289.749           2.703e-02              85.004           1.076e+01     
-168.000         -90.000            2.406e-02           5.617e-03              21.015           1.845e-02              75.755           2.494e+00     
-167.000         -90.000            3.366e-02           2.172e-02              35.375           1.193e-02              63.102           4.258e+00     
-166.000         -90.000            4.593e-02           3.783e-02              39.783           8.101e-03              45.988           2.423e+01     
-165.000         -90.000            4.680e-02           4.007e-02              42.383           6.735e-03              26.353           1.022e+01     
-164.000         -90.000            3.308e-02           2.595e-02              45.620           7.130e-03               9.627           3.880e+00     
-163.000         -90.000            1.597e-02           7.494e-03              54.907           8.477e-03             358.785           1.882e+00     
