Theta [deg.]  Phi   [deg.]  Abs(Dir.)[      ]   Abs(Theta)[      ]  Phase(Theta)[deg.]  Abs(Phi  )[      ]  Phase(Phi  )[deg.]  Ax.Ratio[      ]    
------------------------------------------------------------------------------------------------------------------------------------------------------
-180.000         -90.000            1.179e-02           2.281e-08             160.204           1.179e-02              13.011           3.162e+02     
-179.000         -90.000            1.704e-02           5.430e-03             185.213           1.161e-02              12.597           1.664e+01     
-178.000         -90.000            3.154e-02           2.046e-02             185.377           1.108e-02              11.352           2.008e+01     
-177.000         -90.000            5.197e-02           4.173e-02             185.636           1.024e-02               9.236           4.001e+01     
-176.000         -90.000            7.366e-02           6.448e-02             186.031           9.179e-03               6.179           3.162e+02     
-175.000         -90.000            9.163e-02           8.365e-02             186.615           7.975e-03               2.072           4.476e+01     
-174.000         -90.000            1.018e-01           9.503e-02             187.472           6.724e-03             356.756           2.160e+01     
-173.000         -90.000            1.017e-01           9.617e-02             188.738           5.517e-03             350.008           1.368e+01     
-172.000         -90.000            9.142e-02           8.699e-02             190.651           4.429e-03             341.525           9.463e+00     
-171.000         -90.000            7.327e-02           6.975e-02             193.666           3.523e-03             330.966           6.744e+00     
-170.000         -90.000            5.139e-02           4.855e-02             198.742           2.839e-03             318.017           4.810e+00     
-169.000         -90.000            3.083e-02           2.843e-02             208.178           2.400e-03             302.681           3.454e+00     
-168.000         -90.000            1.644e-02           1.423e-02             227.985           2.212e-03             285.641           3.151e+00     
-167.000         -90.000            1.180e-02           9.528e-03             266.442           2.267e-03             268.291           7.864e+01     
-166.000         -90.000            1.839e-02           1.584e-02             303.134           2.546e-03             252.091           3.432e+00     
-165.000         -90.000            3.533e-02           3.231e-02             321.548           3.018e-03             237.834           3.296e+00     
-164.000         -90.000            5.952e-02           5.588e-02             330.702           3.646e-03             225.606           4.074e+00     
-163.000         -90.000            8.636e-02           8.197e-02             336.082           4.383e-03             215.122           5.117e+00     
