Theta [deg.]  Phi   [deg.]  Abs(Dir.)[      ]   Abs(Theta)[      ]  Phase(Theta)[deg.]  Abs(Phi  )[      ]  Phase(Phi  )[deg.]  Ax.Ratio[      ]    
------------------------------------------------------------------------------------------------------------------------------------------------------
-180.000         -90.000            2.636e-03           1.999e-09             220.821           2.636e-03             339.915           3.162e+02     
-179.000         -90.000            5.920e-03           3.318e-03              48.772           2.602e-03             339.742           1.484e+00     
-178.000         -90.000            1.511e-02           1.261e-02              48.886           2.502e-03             339.224           2.464e+00     
-177.000         -90.000            2.835e-02           2.601e-02              49.073           2.342e-03             338.340           3.568e+00     
-176.000         -90.000            4.293e-02           4.080e-02              49.362           2.131e-03             337.046           4.615e+00     
-175.000         -90.000            5.591e-02           5.402e-02              49.789           1.884e-03             335.278           5.571e+00     
-174.000         -90.000            6.467e-02           6.305e-02              50.411           1.615e-03             332.934           6.408e+00     
-173.000         -90.000            6.747e-02           6.613e-02              51.320           1.340e-03             329.857           7.106e+00     
-172.000         -90.000            6.378e-02           6.271e-02              52.669           1.074e-03             325.810           7.652e+00     
-171.000         -90.000            5.443e-02           5.360e-02              54.724           8.325e-04             320.431           8.047e+00     
-170.000         -90.000            4.137e-02           4.074e-02              58.012           6.265e-04             313.195           8.350e+00     
-169.000         -90.000            2.731e-02           2.684e-02              63.663           4.658e-04             303.397           8.829e+00     
-168.000         -90.000            1.518e-02           1.483e-02              74.495           3.562e-04             290.383           1.118e+01     
-167.000         -90.000            7.541e-03           7.240e-03              97.816           3.002e-04             274.321           8.390e+01     
-166.000         -90.000            6.045e-03           5.748e-03             139.357           2.966e-04             257.124           5.033e+00     
-165.000         -90.000            1.116e-02           1.081e-02             172.149           3.413e-04             241.632           6.034e+00     
-164.000         -90.000            2.205e-02           2.162e-02             187.715           4.272e-04             229.437           1.081e+01     
-163.000         -90.000            3.678e-02           3.623e-02             195.584           5.456e-04             220.488           1.959e+01     
