Theta [deg.]  Phi   [deg.]  Abs(Dir.)[      ]   Abs(Theta)[      ]  Phase(Theta)[deg.]  Abs(Phi  )[      ]  Phase(Phi  )[deg.]  Ax.Ratio[      ]    
------------------------------------------------------------------------------------------------------------------------------------------------------
-180.000         -90.000            4.220e-03           2.601e-07             240.186           4.219e-03              96.573           2.147e+02     
-179.000         -90.000            6.325e-03           2.251e-03             199.999           4.074e-03              97.966           1.442e+00     
-178.000         -90.000            1.102e-02           7.313e-03             200.055           3.704e-03             102.334           1.443e+00     
-177.000         -90.000            1.482e-02           1.154e-02             200.491           3.282e-03             109.912           1.876e+00     
-176.000         -90.000            1.491e-02           1.190e-02             201.458           3.012e-03             120.370           2.028e+00     
-175.000         -90.000            1.117e-02           8.132e-03             203.643           3.036e-03             131.991           1.818e+00     
-174.000         -90.000            6.361e-03           2.987e-03             210.003           3.374e-03             142.134           1.494e+00     
-173.000         -90.000            4.147e-03           2.334e-04             261.914           3.914e-03             149.040           4.486e+00     
-172.000         -90.000            6.450e-03           1.988e-03             358.008           4.462e-03             152.439           4.810e+00     
-171.000         -90.000            1.202e-02           7.200e-03               7.843           4.818e-03             152.798           3.245e+00     
-170.000         -90.000            1.724e-02           1.239e-02              11.900           4.847e-03             150.659           3.046e+00     
-169.000         -90.000            1.862e-02           1.410e-02              15.607           4.520e-03             146.439           2.714e+00     
-168.000         -90.000            1.522e-02           1.132e-02              21.216           3.906e-03             140.447           2.161e+00     
-167.000         -90.000            9.309e-03           6.179e-03              33.043           3.130e-03             132.974           1.468e+00     
-166.000         -90.000            4.784e-03           2.464e-03              65.744           2.320e-03             124.442           1.780e+00     
-165.000         -90.000            4.511e-03           2.940e-03             122.724           1.571e-03             115.609           1.689e+01     
-164.000         -90.000            8.351e-03           7.418e-03             149.776           9.334e-04             107.976           4.541e+00     
-163.000         -90.000            1.334e-02           1.289e-02             160.659           4.427e-04             105.199           6.625e+00     
