Theta [deg.]  Phi   [deg.]  Abs(Dir.)[      ]   Abs(Theta)[      ]  Phase(Theta)[deg.]  Abs(Phi  )[      ]  Phase(Phi  )[deg.]  Ax.Ratio[      ]    
------------------------------------------------------------------------------------------------------------------------------------------------------
-180.000         -90.000            5.314e-02           6.304e-08             116.267           5.314e-02               7.013           3.162e+02     
-179.000         -90.000            5.619e-02           3.589e-03             254.387           5.260e-02               6.520           4.175e+00     
-178.000         -90.000            6.447e-02           1.346e-02             254.614           5.101e-02               5.034           2.163e+00     
-177.000         -90.000            7.557e-02           2.702e-02             254.905           4.856e-02               2.530           1.540e+00     
-176.000         -90.000            8.622e-02           4.072e-02             255.332           4.550e-02             358.969           1.280e+00     
-175.000         -90.000            9.316e-02           5.100e-02             255.956           4.216e-02             354.316           1.191e+00     
-174.000         -90.000            9.408e-02           5.522e-02             256.874           3.887e-02             348.558           1.195e+00     
-173.000         -90.000            8.827e-02           5.234e-02             258.254           3.593e-02             341.733           1.247e+00     
-172.000         -90.000            7.678e-02           4.321e-02             260.414           3.357e-02             333.964           1.374e+00     
-171.000         -90.000            6.225e-02           3.032e-02             264.046           3.193e-02             325.472           1.684e+00     
-170.000         -90.000            4.816e-02           1.712e-02             270.944           3.105e-02             316.558           2.528e+00     
-169.000         -90.000            3.797e-02           7.121e-03             287.062           3.085e-02             307.550           7.180e+00     
-168.000         -90.000            3.416e-02           3.001e-03             331.643           3.116e-02             298.731           6.343e+00     
-167.000         -90.000            3.765e-02           5.892e-03              22.760           3.176e-02             290.290           2.325e+00     
-166.000         -90.000            4.751e-02           1.512e-02              42.493           3.239e-02             282.307           1.978e+00     
-165.000         -90.000            6.121e-02           2.842e-02              50.979           3.280e-02             274.779           2.496e+00     
-164.000         -90.000            7.527e-02           4.249e-02              55.906           3.278e-02             267.642           3.553e+00     
-163.000         -90.000            8.611e-02           5.393e-02              59.568           3.219e-02             260.804           5.526e+00     
