Theta [deg.]  Phi   [deg.]  Abs(Dir.)[      ]   Abs(Theta)[      ]  Phase(Theta)[deg.]  Abs(Phi  )[      ]  Phase(Phi  )[deg.]  Ax.Ratio[      ]    
------------------------------------------------------------------------------------------------------------------------------------------------------
-180.000         -90.000            1.642e-02           5.052e-06               1.569           1.641e-02              17.093           2.130e+02     
-179.000         -90.000            2.409e-02           7.822e-03             101.804           1.627e-02              14.519           1.447e+00     
-178.000         -90.000            4.071e-02           2.433e-02             102.625           1.638e-02               7.992           1.239e+00     
-177.000         -90.000            5.188e-02           3.459e-02             103.149           1.729e-02             358.621           1.544e+00     
-176.000         -90.000            4.876e-02           2.933e-02             103.997           1.942e-02             348.238           1.669e+00     
-175.000         -90.000            3.605e-02           1.332e-02             106.345           2.273e-02             338.585           2.157e+00     
-174.000         -90.000            2.767e-02           1.106e-03             123.503           2.656e-02             330.523           1.115e+01     
-173.000         -90.000            3.389e-02           4.027e-03             267.489           2.987e-02             324.092           3.408e+00     
-172.000         -90.000            5.165e-02           2.008e-02             274.404           3.157e-02             318.941           2.530e+00     
-171.000         -90.000            6.670e-02           3.567e-02             276.243           3.103e-02             314.632           2.881e+00     
-170.000         -90.000            6.575e-02           3.752e-02             277.646           2.824e-02             310.735           3.407e+00     
-169.000         -90.000            4.797e-02           2.419e-02             280.195           2.377e-02             306.810           4.228e+00     
-168.000         -90.000            2.575e-02           7.161e-03             288.866           1.859e-02             302.348           9.468e+00     
-167.000         -90.000            1.444e-02           8.046e-04              21.340           1.364e-02             296.694           4.137e+00     
-166.000         -90.000            1.976e-02           1.016e-02              75.811           9.591e-03             289.024           3.355e+00     
-165.000         -90.000            3.375e-02           2.698e-02              82.691           6.774e-03             278.527           9.039e+00     
-164.000         -90.000            4.223e-02           3.706e-02              86.191           5.171e-03             265.136           1.656e+02     
-163.000         -90.000            3.690e-02           3.234e-02              90.520           4.561e-03             250.418           8.726e+00     
