Theta [deg.]  Phi   [deg.]  Abs(Dir.)[      ]   Abs(Theta)[      ]  Phase(Theta)[deg.]  Abs(Phi  )[      ]  Phase(Phi  )[deg.]  Ax.Ratio[      ]    
------------------------------------------------------------------------------------------------------------------------------------------------------
-180.000         -90.000            1.790e-05           4.759e-08             261.695           1.785e-05             266.919           2.133e+02     
-179.000         -90.000            5.511e-03           5.482e-03             267.347           2.889e-05             268.475           3.162e+02     
-178.000         -90.000            1.903e-02           1.895e-02             267.582           7.584e-05             270.268           3.162e+02     
-177.000         -90.000            3.346e-02           3.327e-02             268.028           1.945e-04             270.576           2.959e+02     
-176.000         -90.000            4.131e-02           4.089e-02             268.822           4.256e-04             269.683           3.162e+02     
-175.000         -90.000            3.866e-02           3.787e-02             270.256           7.941e-04             267.915           1.726e+02     
-174.000         -90.000            2.725e-02           2.596e-02             273.086           1.292e-03             265.421           3.526e+01     
-173.000         -90.000            1.344e-02           1.157e-02             279.956           1.870e-03             262.243           9.389e+00     
-172.000         -90.000            4.719e-03           2.273e-03             308.138           2.446e-03             258.359           2.158e+00     
-171.000         -90.000            5.702e-03           2.781e-03              41.425           2.921e-03             253.693           3.458e+00     
-170.000         -90.000            1.567e-02           1.247e-02              65.165           3.207e-03             248.105           4.831e+01     
-169.000         -90.000            2.906e-02           2.581e-02              72.071           3.254e-03             241.363           1.701e+01     
-168.000         -90.000            3.853e-02           3.546e-02              76.035           3.066e-03             233.107           9.378e+00     
-167.000         -90.000            3.894e-02           3.624e-02              79.806           2.706e-03             222.795           6.377e+00     
-166.000         -90.000            3.020e-02           2.791e-02              85.192           2.281e-03             209.707           4.363e+00     
-165.000         -90.000            1.729e-02           1.537e-02              95.844           1.920e-03             193.187           2.860e+00     
-164.000         -90.000            7.747e-03           6.016e-03             124.512           1.731e-03             173.460           2.830e+00     
-163.000         -90.000            7.649e-03           5.873e-03             182.902           1.777e-03             152.523           4.458e+00     
