Theta [deg.]  Phi   [deg.]  Abs(Dir.)[      ]   Abs(Theta)[      ]  Phase(Theta)[deg.]  Abs(Phi  )[      ]  Phase(Phi  )[deg.]  Ax.Ratio[      ]    
------------------------------------------------------------------------------------------------------------------------------------------------------
-180.000         -90.000            6.049e-02           7.849e-07             235.276           6.049e-02              41.593           3.162e+02     
-179.000         -90.000            6.300e-02           3.966e-03              26.142           5.903e-02              41.086           1.590e+01     
-178.000         -90.000            6.979e-02           1.487e-02              26.264           5.492e-02              39.607           1.049e+01     
-177.000         -90.000            7.822e-02           2.949e-02              26.206           4.873e-02              37.023           1.090e+01     
-176.000         -90.000            8.479e-02           4.349e-02              26.067           4.130e-02              33.096           1.629e+01     
-175.000         -90.000            8.636e-02           5.275e-02              25.865           3.361e-02              27.465           7.348e+01     
-174.000         -90.000            8.116e-02           5.456e-02              25.613           2.659e-02              19.642           2.043e+01     
-173.000         -90.000            6.945e-02           4.842e-02              25.307           2.102e-02               9.150           7.692e+00     
-172.000         -90.000            5.355e-02           3.616e-02              24.946           1.739e-02             355.922           4.161e+00     
-171.000         -90.000            3.722e-02           2.139e-02              24.517           1.583e-02             340.913           2.539e+00     
-170.000         -90.000            2.457e-02           8.397e-03              23.938           1.617e-02             326.072           1.986e+00     
-169.000         -90.000            1.888e-02           9.284e-04              22.402           1.795e-02             313.142           4.734e+00     
-168.000         -90.000            2.160e-02           1.071e-03             205.427           2.053e-02             302.730           4.417e+00     
-167.000         -90.000            3.191e-02           8.689e-03             204.042           2.322e-02             294.571           1.635e+00     
-166.000         -90.000            4.688e-02           2.149e-02             203.562           2.539e-02             288.128           1.135e+00     
-165.000         -90.000            6.230e-02           3.573e-02             203.305           2.656e-02             282.901           1.266e+00     
-164.000         -90.000            7.378e-02           4.730e-02             203.247           2.647e-02             278.499           1.480e+00     
-163.000         -90.000            7.801e-02           5.292e-02             203.462           2.508e-02             274.628           1.659e+00     
