Theta [deg.]  Phi   [deg.]  Abs(Dir.)[      ]   Abs(Theta)[      ]  Phase(Theta)[deg.]  Abs(Phi  )[      ]  Phase(Phi  )[deg.]  Ax.Ratio[      ]    
------------------------------------------------------------------------------------------------------------------------------------------------------
-180.000         -90.000            1.332e-03           1.593e-08             173.354           1.332e-03             333.511           3.162e+02     
-179.000         -90.000            3.119e-03           1.805e-03              85.791           1.315e-03             332.015           1.580e+00     
-178.000         -90.000            8.205e-03           6.930e-03              85.868           1.275e-03             327.411           2.780e+00     
-177.000         -90.000            1.581e-02           1.457e-02              86.077           1.247e-03             319.643           4.384e+00     
-176.000         -90.000            2.479e-02           2.351e-02              86.411           1.279e-03             309.033           6.522e+00     
-175.000         -90.000            3.378e-02           3.235e-02              86.891           1.433e-03             296.706           9.878e+00     
-174.000         -90.000            4.148e-02           3.971e-02              87.558           1.772e-03             284.403           1.701e+01     
-173.000         -90.000            4.681e-02           4.446e-02              88.472           2.351e-03             273.556           5.165e+01     
-172.000         -90.000            4.909e-02           4.588e-02              89.729           3.213e-03             264.693           4.605e+01     
-171.000         -90.000            4.819e-02           4.382e-02              91.479           4.374e-03             257.664           1.451e+01     
-170.000         -90.000            4.449e-02           3.867e-02              93.965           5.827e-03             252.078           7.824e+00     
-169.000         -90.000            3.887e-02           3.134e-02              97.628           7.530e-03             247.547           4.842e+00     
-168.000         -90.000            3.252e-02           2.311e-02             103.271           9.417e-03             243.763           3.148e+00     
-167.000         -90.000            2.680e-02           1.541e-02             112.496           1.140e-02             240.497           2.088e+00     
-166.000         -90.000            2.299e-02           9.628e-03             128.375           1.336e-02             237.580           1.463e+00     
-165.000         -90.000            2.206e-02           6.876e-03             154.225           1.519e-02             234.889           1.538e+00     
-164.000         -90.000            2.459e-02           7.822e-03             184.175           1.677e-02             232.327           2.479e+00     
-163.000         -90.000            3.059e-02           1.259e-02             205.940           1.800e-02             229.818           4.812e+00     
