Theta [deg.]  Phi   [deg.]  Abs(Dir.)[      ]   Abs(Theta)[      ]  Phase(Theta)[deg.]  Abs(Phi  )[      ]  Phase(Phi  )[deg.]  Ax.Ratio[      ]    
------------------------------------------------------------------------------------------------------------------------------------------------------
-180.000         -90.000            2.115e-02           4.813e-07             173.656           2.115e-02             344.530           3.162e+02     
-179.000         -90.000            2.730e-02           7.001e-03              71.791           2.030e-02             343.328           1.704e+00     
-178.000         -90.000            4.098e-02           2.287e-02              71.673           1.811e-02             339.840           1.129e+00     
-177.000         -90.000            5.105e-02           3.584e-02              71.869           1.521e-02             333.756           1.573e+00     
-176.000         -90.000            4.865e-02           3.627e-02              72.467           1.238e-02             324.721           1.878e+00     
-175.000         -90.000            3.401e-02           2.377e-02              74.055           1.024e-02             312.777           2.067e+00     
-174.000         -90.000            1.676e-02           7.677e-03              79.610           9.079e-03             299.005           2.806e+00     
-173.000         -90.000            9.188e-03           3.761e-04             158.214           8.812e-03             285.508           6.182e+00     
-172.000         -90.000            1.734e-02           8.280e-03             234.294           9.065e-03             274.179           2.760e+00     
-171.000         -90.000            3.640e-02           2.702e-02             239.770           9.383e-03             265.749           5.020e+00     
-170.000         -90.000            5.370e-02           4.429e-02             241.417           9.408e-03             260.087           8.094e+00     
-169.000         -90.000            5.735e-02           4.837e-02             242.297           8.986e-03             256.818           1.088e+01     
-168.000         -90.000            4.450e-02           3.634e-02             243.368           8.168e-03             255.601           1.211e+01     
-167.000         -90.000            2.342e-02           1.629e-02             246.127           7.130e-03             256.151           1.240e+01     
-166.000         -90.000            7.998e-03           1.925e-03             262.755           6.073e-03             258.108           2.884e+01     
-165.000         -90.000            8.508e-03           3.376e-03              38.562           5.132e-03             260.901           2.659e+00     
-164.000         -90.000            2.474e-02           2.040e-02              49.814           4.346e-03             263.692           4.492e+00     
-163.000         -90.000            4.621e-02           4.253e-02              52.516           3.677e-03             265.469           6.642e+00     
