Theta [deg.]  Phi   [deg.]  Abs(Dir.)[      ]   Abs(Theta)[      ]  Phase(Theta)[deg.]  Abs(Phi  )[      ]  Phase(Phi  )[deg.]  Ax.Ratio[      ]    
------------------------------------------------------------------------------------------------------------------------------------------------------
-180.000         -90.000            2.861e-02           4.932e-08             177.689           2.861e-02              92.747           3.162e+02     
-179.000         -90.000            3.387e-02           5.678e-03             119.938           2.819e-02              92.445           5.621e+00     
-178.000         -90.000            4.867e-02           2.168e-02             119.906           2.699e-02              91.522           3.981e+00     
-177.000         -90.000            7.028e-02           4.517e-02             119.948           2.510e-02              89.933           3.917e+00     
-176.000         -90.000            9.470e-02           7.202e-02             120.043           2.268e-02              87.594           4.125e+00     
-175.000         -90.000            1.174e-01           9.750e-02             120.206           1.992e-02              84.379           4.321e+00     
-174.000         -90.000            1.342e-01           1.171e-01             120.465           1.703e-02              80.110           4.412e+00     
-173.000         -90.000            1.418e-01           1.275e-01             120.867           1.424e-02              74.552           4.371e+00     
-172.000         -90.000            1.386e-01           1.268e-01             121.486           1.175e-02              67.426           4.196e+00     
-171.000         -90.000            1.250e-01           1.153e-01             122.447           9.708e-03              58.479           3.902e+00     
-170.000         -90.000            1.033e-01           9.503e-02             123.981           8.241e-03              47.640           3.513e+00     
-169.000         -90.000            7.706e-02           6.966e-02             126.538           7.398e-03              35.269           3.070e+00     
-168.000         -90.000            5.097e-02           4.380e-02             131.148           7.172e-03              22.264           2.664e+00     
-167.000         -90.000            2.967e-02           2.217e-02             140.649           7.498e-03               9.768           2.669e+00     
-166.000         -90.000            1.711e-02           8.840e-03             164.500           8.266e-03             358.630           8.074e+00     
-165.000         -90.000            1.583e-02           6.502e-03             216.014           9.328e-03             349.152           2.362e+00     
-164.000         -90.000            2.657e-02           1.604e-02             251.585           1.052e-02             341.226           1.235e+00     
-163.000         -90.000            4.808e-02           3.640e-02             265.247           1.168e-02             334.577           1.989e+00     
