Theta [deg.]  Phi   [deg.]  Abs(Dir.)[      ]   Abs(Theta)[      ]  Phase(Theta)[deg.]  Abs(Phi  )[      ]  Phase(Phi  )[deg.]  Ax.Ratio[      ]    
------------------------------------------------------------------------------------------------------------------------------------------------------
-180.000         -90.000            3.079e-02           1.520e-06             319.863           3.079e-02              11.366           1.819e+02     
-179.000         -90.000            3.407e-02           3.876e-03             156.896           3.020e-02              10.709           5.477e+00     
-178.000         -90.000            4.313e-02           1.444e-02             156.856           2.868e-02               8.843           3.732e+00     
-177.000         -90.000            5.449e-02           2.804e-02             157.034           2.645e-02               5.696           3.916e+00     
-176.000         -90.000            6.377e-02           3.999e-02             157.393           2.378e-02               1.159           4.928e+00     
-175.000         -90.000            6.717e-02           4.615e-02             158.004           2.102e-02             355.113           7.191e+00     
-174.000         -90.000            6.290e-02           4.442e-02             159.030           1.848e-02             347.474           1.488e+01     
-173.000         -90.000            5.184e-02           3.543e-02             160.830           1.641e-02             338.288           4.844e+01     
-172.000         -90.000            3.732e-02           2.234e-02             164.318           1.498e-02             327.823           7.043e+00     
-171.000         -90.000            2.403e-02           9.788e-03             172.615           1.424e-02             316.613           3.144e+00     
-170.000         -90.000            1.645e-02           2.338e-03             203.274           1.411e-02             305.328           2.534e+00     
-169.000         -90.000            1.736e-02           2.913e-03             283.584           1.445e-02             294.562           1.398e+01     
-168.000         -90.000            2.686e-02           1.182e-02             309.026           1.504e-02             284.657           4.668e+00     
-167.000         -90.000            4.225e-02           2.662e-02             316.566           1.563e-02             275.698           2.810e+00     
-166.000         -90.000            5.893e-02           4.290e-02             320.100           1.602e-02             267.600           2.420e+00     
-165.000         -90.000            7.174e-02           5.570e-02             322.333           1.603e-02             260.199           2.276e+00     
-164.000         -90.000            7.666e-02           6.109e-02             324.197           1.556e-02             253.312           2.170e+00     
-163.000         -90.000            7.201e-02           5.742e-02             326.248           1.459e-02             246.759           2.040e+00     
