Theta [deg.]  Phi   [deg.]  Abs(Dir.)[      ]   Abs(Theta)[      ]  Phase(Theta)[deg.]  Abs(Phi  )[      ]  Phase(Phi  )[deg.]  Ax.Ratio[      ]    
------------------------------------------------------------------------------------------------------------------------------------------------------
-180.000         -90.000            5.938e-02           4.409e-08             184.753           5.938e-02             102.565           3.162e+02     
-179.000         -90.000            6.206e-02           3.314e-03             319.848           5.874e-02             102.078           7.121e+00     
-178.000         -90.000            6.935e-02           1.246e-02             320.086           5.689e-02             100.614           3.837e+00     
-177.000         -90.000            7.915e-02           2.513e-02             320.405           5.402e-02              98.145           2.843e+00     
-176.000         -90.000            8.862e-02           3.816e-02             320.873           5.046e-02              94.627           2.375e+00     
-175.000         -90.000            9.485e-02           4.830e-02             321.553           4.655e-02              90.021           2.072e+00     
-174.000         -90.000            9.576e-02           5.306e-02             322.540           4.270e-02              84.304           1.815e+00     
-173.000         -90.000            9.056e-02           5.132e-02             323.999           3.924e-02              77.508           1.559e+00     
-172.000         -90.000            8.006e-02           4.363e-02             326.234           3.644e-02              69.746           1.290e+00     
-171.000         -90.000            6.647e-02           3.200e-02             329.872           3.446e-02              61.239           1.045e+00     
-170.000         -90.000            5.282e-02           1.948e-02             336.423           3.334e-02              52.292           1.446e+00     
-169.000         -90.000            4.227e-02           9.277e-03             350.287           3.300e-02              43.247           2.650e+00     
-168.000         -90.000            3.729e-02           4.044e-03              24.547           3.324e-02              34.400           1.874e+01     
-167.000         -90.000            3.900e-02           5.174e-03              74.843           3.383e-02              25.949           3.638e+00     
-166.000         -90.000            4.697e-02           1.249e-02             100.335           3.448e-02              17.983           1.693e+00     
-165.000         -90.000            5.921e-02           2.430e-02             111.348           3.491e-02              10.496           1.302e+00     
-164.000         -90.000            7.275e-02           3.784e-02             117.423           3.492e-02               3.428           1.543e+00     
-163.000         -90.000            8.428e-02           4.996e-02             121.639           3.433e-02             356.685           1.978e+00     
