Theta [deg.]  Phi   [deg.]  Abs(Dir.)[      ]   Abs(Theta)[      ]  Phase(Theta)[deg.]  Abs(Phi  )[      ]  Phase(Phi  )[deg.]  Ax.Ratio[      ]    
------------------------------------------------------------------------------------------------------------------------------------------------------
-180.000         -90.000            6.663e-04           9.980e-07              95.876           6.653e-04              84.515           1.313e+02     
-179.000         -90.000            7.649e-03           6.979e-03             119.457           6.697e-04              83.656           5.878e+00     
-178.000         -90.000            2.514e-02           2.446e-02             119.799           6.775e-04              81.244           9.806e+00     
-177.000         -90.000            4.523e-02           4.454e-02             120.241           6.873e-04              77.430           1.195e+01     
-176.000         -90.000            5.885e-02           5.816e-02             120.959           6.961e-04              72.400           1.226e+01     
-175.000         -90.000            5.992e-02           5.922e-02             122.196           6.991e-04              66.319           1.116e+01     
-174.000         -90.000            4.807e-02           4.738e-02             124.481           6.910e-04              59.286           9.146e+00     
-173.000         -90.000            2.886e-02           2.819e-02             129.260           6.660e-04              51.234           6.658e+00     
-172.000         -90.000            1.121e-02           1.058e-02             142.216           6.216e-04              41.962           4.202e+00     
-171.000         -90.000            3.419e-03           2.859e-03             195.173           5.602e-04              31.062           9.766e+00     
-170.000         -90.000            9.440e-03           8.950e-03             257.498           4.903e-04              17.909           5.026e+00     
-169.000         -90.000            2.711e-02           2.669e-02             273.189           4.268e-04               1.840           7.909e+00     
-168.000         -90.000            4.912e-02           4.873e-02             279.067           3.903e-04             342.284           1.254e+01     
-167.000         -90.000            6.624e-02           6.584e-02             282.452           4.026e-04             320.326           2.091e+01     
-166.000         -90.000            7.137e-02           7.089e-02             285.326           4.827e-04             298.546           5.333e+01     
-165.000         -90.000            6.262e-02           6.197e-02             288.850           6.429e-04             279.264           5.955e+01     
-164.000         -90.000            4.408e-02           4.319e-02             294.607           8.863e-04             263.091           1.355e+01     
-163.000         -90.000            2.407e-02           2.286e-02             306.454           1.206e-03             249.552           5.282e+00     
