Theta [deg.]  Phi   [deg.]  Abs(Dir.)[      ]   Abs(Theta)[      ]  Phase(Theta)[deg.]  Abs(Phi  )[      ]  Phase(Phi  )[deg.]  Ax.Ratio[      ]    
------------------------------------------------------------------------------------------------------------------------------------------------------
-180.000         -90.000            5.164e-02           6.353e-07             144.404           5.164e-02             306.351           3.162e+02     
-179.000         -90.000            5.400e-02           3.634e-03             321.105           5.036e-02             305.786           1.504e+01     
-178.000         -90.000            6.034e-02           1.355e-02             321.052           4.679e-02             304.141           8.115e+00     
-177.000         -90.000            6.802e-02           2.657e-02             320.933           4.145e-02             301.271           5.923e+00     
-176.000         -90.000            7.362e-02           3.852e-02             320.761           3.510e-02             296.921           4.743e+00     
-175.000         -90.000            7.422e-02           4.557e-02             320.539           2.864e-02             290.717           3.872e+00     
-174.000         -90.000            6.838e-02           4.549e-02             320.272           2.289e-02             282.203           3.116e+00     
-173.000         -90.000            5.680e-02           3.829e-02             319.960           1.851e-02             271.043           2.417e+00     
-172.000         -90.000            4.214e-02           2.629e-02             319.603           1.585e-02             257.474           1.770e+00     
-171.000         -90.000            2.830e-02           1.331e-02             319.189           1.499e-02             242.756           1.279e+00     
-170.000         -90.000            1.916e-02           3.501e-03             318.619           1.566e-02             228.751           2.115e+00     
-169.000         -90.000            1.741e-02           4.266e-06             150.870           1.740e-02             216.784           6.996e+01     
-168.000         -90.000            2.361e-02           4.009e-03             138.732           1.960e-02             207.139           2.458e+00     
-167.000         -90.000            3.603e-02           1.437e-02             138.248           2.165e-02             199.474           1.762e+00     
-166.000         -90.000            5.104e-02           2.801e-02             137.972           2.303e-02             193.287           1.924e+00     
-165.000         -90.000            6.422e-02           4.082e-02             137.867           2.340e-02             188.132           2.259e+00     
-164.000         -90.000            7.159e-02           4.898e-02             137.996           2.261e-02             183.662           2.627e+00     
-163.000         -90.000            7.083e-02           5.010e-02             138.501           2.073e-02             179.600           3.011e+00     
