Theta [deg.]  Phi   [deg.]  Abs(Dir.)[      ]   Abs(Theta)[      ]  Phase(Theta)[deg.]  Abs(Phi  )[      ]  Phase(Phi  )[deg.]  Ax.Ratio[      ]    
------------------------------------------------------------------------------------------------------------------------------------------------------
-180.000         -90.000            4.182e-02           8.417e-08             336.313           4.182e-02             177.419           3.162e+02     
-179.000         -90.000            4.513e-02           3.736e-03             124.231           4.139e-02             176.898           4.333e+00     
-178.000         -90.000            5.408e-02           1.393e-02             124.413           4.015e-02             175.320           2.555e+00     
-177.000         -90.000            6.589e-02           2.764e-02             124.638           3.825e-02             172.655           2.289e+00     
-176.000         -90.000            7.684e-02           4.094e-02             124.974           3.591e-02             168.867           2.489e+00     
-175.000         -90.000            8.341e-02           5.002e-02             125.478           3.339e-02             163.922           2.943e+00     
-174.000         -90.000            8.330e-02           5.232e-02             126.248           3.098e-02             157.826           3.679e+00     
-173.000         -90.000            7.615e-02           4.723e-02             127.459           2.892e-02             150.650           5.034e+00     
-172.000         -90.000            6.368e-02           3.628e-02             129.475           2.739e-02             142.564           8.805e+00     
-171.000         -90.000            4.917e-02           2.267e-02             133.175           2.650e-02             133.843           1.719e+02     
-170.000         -90.000            3.657e-02           1.034e-02             141.360           2.624e-02             124.831           7.676e+00     
-169.000         -90.000            2.934e-02           2.833e-03             167.618           2.651e-02             115.863           4.065e+00     
-168.000         -90.000            2.946e-02           2.326e-03             242.072           2.714e-02             107.191           5.035e+00     
-167.000         -90.000            3.690e-02           9.000e-03             274.206           2.790e-02              98.955           2.810e+01     
-166.000         -90.000            4.959e-02           2.103e-02             283.978           2.856e-02              91.180           9.024e+00     
-165.000         -90.000            6.401e-02           3.512e-02             288.762           2.889e-02              83.816           4.544e+00     
-164.000         -90.000            7.618e-02           4.746e-02             292.032           2.872e-02              76.762           3.267e+00     
-163.000         -90.000            8.274e-02           5.479e-02             294.959           2.795e-02              69.895           2.603e+00     
