Theta [deg.]  Phi   [deg.]  Abs(Dir.)[      ]   Abs(Theta)[      ]  Phase(Theta)[deg.]  Abs(Phi  )[      ]  Phase(Phi  )[deg.]  Ax.Ratio[      ]    
------------------------------------------------------------------------------------------------------------------------------------------------------
-180.000         -90.000            2.271e-02           9.088e-08              55.611           2.271e-02             101.108           3.162e+02     
-179.000         -90.000            2.865e-02           6.069e-03             358.231           2.258e-02             100.690           2.009e+00     
-178.000         -90.000            4.410e-02           2.190e-02             358.296           2.220e-02              99.441           1.216e+00     
-177.000         -90.000            6.301e-02           4.144e-02             358.570           2.157e-02              97.399           1.437e+00     
-176.000         -90.000            7.793e-02           5.724e-02             359.082           2.069e-02              94.627           1.680e+00     
-175.000         -90.000            8.291e-02           6.333e-02             359.959           1.958e-02              91.201           1.799e+00     
-174.000         -90.000            7.577e-02           5.753e-02               1.480           1.824e-02              87.204           1.785e+00     
-173.000         -90.000            5.889e-02           4.221e-02               4.279           1.668e-02              82.708           1.665e+00     
-172.000         -90.000            3.833e-02           2.340e-02              10.128           1.492e-02              77.776           1.587e+00     
-171.000         -90.000            2.141e-02           8.395e-03              26.008           1.302e-02              72.453           2.412e+00     
-170.000         -90.000            1.398e-02           2.962e-03              82.760           1.102e-02              66.768           8.769e+00     
-169.000         -90.000            1.817e-02           9.161e-03             135.778           9.013e-03              60.740           1.302e+00     
-168.000         -90.000            3.169e-02           2.461e-02             150.775           7.082e-03              54.386           1.885e+00     
-167.000         -90.000            4.876e-02           4.345e-02             156.978           5.308e-03              47.749           3.075e+00     
-166.000         -90.000            6.239e-02           5.864e-02             160.802           3.754e-03              40.918           4.634e+00     
-165.000         -90.000            6.708e-02           6.462e-02             164.161           2.461e-03              34.088           6.804e+00     
-164.000         -90.000            6.092e-02           5.947e-02             168.193           1.447e-03              27.683           1.023e+01     
-163.000         -90.000            4.630e-02           4.559e-02             174.307           7.111e-04              22.749           1.701e+01     
