Theta [deg.]  Phi   [deg.]  Abs(Dir.)[      ]   Abs(Theta)[      ]  Phase(Theta)[deg.]  Abs(Phi  )[      ]  Phase(Phi  )[deg.]  Ax.Ratio[      ]    
------------------------------------------------------------------------------------------------------------------------------------------------------
-180.000         -90.000            1.345e-03           2.725e-06              65.242           1.343e-03              65.219           3.162e+02     
-179.000         -90.000            7.892e-03           6.559e-03             193.800           1.334e-03              63.715           3.173e+00     
-178.000         -90.000            2.440e-02           2.310e-02             194.588           1.302e-03              59.189           6.174e+00     
-177.000         -90.000            4.222e-02           4.095e-02             195.374           1.270e-03              52.013           9.708e+00     
-176.000         -90.000            5.204e-02           5.078e-02             196.574           1.256e-03              42.916           1.462e+01     
-175.000         -90.000            4.884e-02           4.757e-02             198.657           1.265e-03              32.906           2.554e+01     
-174.000         -90.000            3.451e-02           3.323e-02             202.732           1.279e-03              22.932           3.162e+02     
-173.000         -90.000            1.687e-02           1.562e-02             212.488           1.258e-03              13.522           1.163e+01     
-172.000         -90.000            5.590e-03           4.427e-03             246.297           1.163e-03               4.734           2.382e+00     
-171.000         -90.000            7.068e-03           6.097e-03             317.364           9.713e-04             356.212           4.404e+00     
-170.000         -90.000            2.111e-02           2.041e-02             342.194           6.976e-04             347.149           6.475e+01     
-169.000         -90.000            4.099e-02           4.060e-02             350.428           3.975e-04             335.609           3.988e+01     
-168.000         -90.000            5.689e-02           5.673e-02             354.711           1.553e-04             315.024           2.998e+01     
-167.000         -90.000            6.092e-02           6.086e-02             358.059           5.771e-05             258.161           3.297e+01     
-166.000         -90.000            5.119e-02           5.102e-02               2.033           1.633e-04             198.853           6.127e+01     
-165.000         -90.000            3.276e-02           3.228e-02               8.805           4.784e-04             177.681           4.318e+01     
-164.000         -90.000            1.513e-02           1.418e-02              24.662           9.484e-04             166.533           6.529e+00     
-163.000         -90.000            7.530e-03           6.060e-03              70.032           1.470e-03             158.375           2.032e+00     
