Theta [deg.]  Phi   [deg.]  Abs(Dir.)[      ]   Abs(Theta)[      ]  Phase(Theta)[deg.]  Abs(Phi  )[      ]  Phase(Phi  )[deg.]  Ax.Ratio[      ]    
------------------------------------------------------------------------------------------------------------------------------------------------------
-180.000         -90.000            1.670e-02           8.850e-07             251.069           1.670e-02             164.601           1.376e+02     
-179.000         -90.000            2.122e-02           4.367e-03             281.268           1.686e-02             163.743           2.367e+00     
-178.000         -90.000            3.249e-02           1.515e-02             281.627           1.734e-02             161.277           1.752e+00     
-177.000         -90.000            4.527e-02           2.712e-02             281.995           1.815e-02             157.492           1.968e+00     
-176.000         -90.000            5.377e-02           3.448e-02             282.581           1.929e-02             152.788           2.274e+00     
-175.000         -90.000            5.432e-02           3.368e-02             283.633           2.064e-02             147.578           2.581e+00     
-174.000         -90.000            4.715e-02           2.512e-02             285.715           2.203e-02             142.192           3.043e+00     
-173.000         -90.000            3.623e-02           1.304e-02             290.571           2.318e-02             136.833           4.485e+00     
-172.000         -90.000            2.725e-02           3.467e-03             307.332           2.379e-02             131.578           4.051e+01     
-171.000         -90.000            2.491e-02           1.351e-03              33.954           2.356e-02             126.409           4.181e+00     
-170.000         -90.000            3.056e-02           8.200e-03              73.950           2.236e-02             121.242           2.701e+00     
-169.000         -90.000            4.153e-02           2.132e-02              82.313           2.021e-02             115.946           3.310e+00     
-168.000         -90.000            5.231e-02           3.502e-02              85.804           1.729e-02             110.366           4.910e+00     
-167.000         -90.000            5.719e-02           4.324e-02              88.100           1.395e-02             104.320           8.214e+00     
-166.000         -90.000            5.295e-02           4.236e-02              90.464           1.059e-02              97.601           2.008e+01     
-165.000         -90.000            4.040e-02           3.286e-02              94.022           7.537e-03              89.998           3.655e+01     
-164.000         -90.000            2.418e-02           1.914e-02             101.075           5.035e-03              81.336           7.152e+00     
-163.000         -90.000            1.075e-02           7.591e-03             119.523           3.156e-03              71.601           2.569e+00     
