Theta [deg.]  Phi   [deg.]  Abs(Dir.)[      ]   Abs(Theta)[      ]  Phase(Theta)[deg.]  Abs(Phi  )[      ]  Phase(Phi  )[deg.]  Ax.Ratio[      ]    
------------------------------------------------------------------------------------------------------------------------------------------------------
-180.000         -90.000            3.794e-04           4.807e-10               8.592           3.794e-04             264.425           3.162e+02     
-179.000         -90.000            2.828e-03           2.450e-03             133.280           3.775e-04             264.311           3.621e+00     
-178.000         -90.000            9.581e-03           9.209e-03             133.437           3.719e-04             263.978           6.663e+00     
-177.000         -90.000            1.901e-02           1.864e-02             133.705           3.627e-04             263.407           9.394e+00     
-176.000         -90.000            2.883e-02           2.848e-02             134.126           3.503e-04             262.567           1.157e+01     
-175.000         -90.000            3.671e-02           3.637e-02             134.758           3.350e-04             261.413           1.303e+01     
-174.000         -90.000            4.079e-02           4.047e-02             135.699           3.175e-04             259.889           1.368e+01     
-173.000         -90.000            4.015e-02           3.985e-02             137.114           2.985e-04             257.927           1.348e+01     
-172.000         -90.000            3.507e-02           3.479e-02             139.300           2.786e-04             255.448           1.247e+01     
-171.000         -90.000            2.685e-02           2.659e-02             142.849           2.589e-04             252.370           1.076e+01     
-170.000         -90.000            1.759e-02           1.735e-02             149.070           2.405e-04             248.616           8.618e+00     
-169.000         -90.000            9.606e-03           9.382e-03             161.286           2.243e-04             244.133           6.521e+00     
-168.000         -90.000            4.870e-03           4.659e-03             187.790           2.115e-04             238.919           6.139e+00     
-167.000         -90.000            4.563e-03           4.360e-03             230.354           2.031e-04             233.044           1.033e+02     
-166.000         -90.000            8.785e-03           8.585e-03             259.634           1.999e-04             226.678           1.225e+01     
-165.000         -90.000            1.655e-02           1.635e-02             273.367           2.027e-04             220.077           1.125e+01     
-164.000         -90.000            2.603e-02           2.582e-02             280.530           2.117e-04             213.543           1.202e+01     
-163.000         -90.000            3.503e-02           3.480e-02             284.993           2.269e-04             207.360           1.268e+01     
