Theta [deg.]  Phi   [deg.]  Abs(Dir.)[      ]   Abs(Theta)[      ]  Phase(Theta)[deg.]  Abs(Phi  )[      ]  Phase(Phi  )[deg.]  Ax.Ratio[      ]    
------------------------------------------------------------------------------------------------------------------------------------------------------
-180.000         -90.000            2.152e-02           3.555e-07             190.687           2.152e-02             330.474           3.162e+02     
-179.000         -90.000            2.812e-02           7.161e-03             168.834           2.096e-02             328.634           6.493e+00     
-178.000         -90.000            4.222e-02           2.265e-02             169.136           1.958e-02             323.468           4.402e+00     
-177.000         -90.000            5.192e-02           3.387e-02             169.925           1.805e-02             315.063           3.377e+00     
-176.000         -90.000            4.889e-02           3.177e-02             171.623           1.712e-02             304.013           2.426e+00     
-175.000         -90.000            3.546e-02           1.823e-02             175.756           1.724e-02             291.720           1.601e+00     
-174.000         -90.000            2.282e-02           4.440e-03             191.317           1.838e-02             279.938           2.036e+00     
-173.000         -90.000            2.181e-02           1.760e-03             293.173           2.005e-02             269.871           9.173e+00     
-172.000         -90.000            3.393e-02           1.241e-02             327.039           2.152e-02             261.865           1.699e+00     
-171.000         -90.000            4.979e-02           2.770e-02             333.895           2.210e-02             255.754           1.268e+00     
-170.000         -90.000            5.659e-02           3.518e-02             337.508           2.141e-02             251.230           1.293e+00     
-169.000         -90.000            4.824e-02           2.877e-02             341.460           1.948e-02             248.029           1.226e+00     
-168.000         -90.000            3.045e-02           1.378e-02             349.762           1.667e-02             245.939           1.299e+00     
-167.000         -90.000            1.628e-02           2.787e-03              25.608           1.350e-02             244.757           3.953e+00     
-166.000         -90.000            1.608e-02           5.643e-03             112.368           1.043e-02             244.177           2.393e+00     
-165.000         -90.000            2.938e-02           2.159e-02             131.685           7.790e-03             243.666           1.923e+00     
-164.000         -90.000            4.524e-02           3.956e-02             137.518           5.677e-03             242.302           2.760e+00     
-163.000         -90.000            5.060e-02           4.651e-02             140.852           4.084e-03             238.690           3.413e+00     
