Theta [deg.]  Phi   [deg.]  Abs(Dir.)[      ]   Abs(Theta)[      ]  Phase(Theta)[deg.]  Abs(Phi  )[      ]  Phase(Phi  )[deg.]  Ax.Ratio[      ]    
------------------------------------------------------------------------------------------------------------------------------------------------------
-180.000         -90.000            1.135e-02           1.547e-06             319.765           1.135e-02             359.395           1.343e+02     
-179.000         -90.000            1.579e-02           4.678e-03             253.265           1.111e-02             358.421           1.670e+00     
-178.000         -90.000            2.725e-02           1.674e-02             252.976           1.050e-02             355.721           1.384e+00     
-177.000         -90.000            4.111e-02           3.146e-02             253.173           9.648e-03             351.168           1.839e+00     
-176.000         -90.000            5.178e-02           4.307e-02             253.699           8.710e-03             344.608           2.224e+00     
-175.000         -90.000            5.496e-02           4.709e-02             254.655           7.874e-03             335.956           2.485e+00     
-174.000         -90.000            4.939e-02           4.208e-02             256.329           7.308e-03             325.391           2.636e+00     
-173.000         -90.000            3.729e-02           3.016e-02             259.419           7.130e-03             313.517           2.780e+00     
-172.000         -90.000            2.352e-02           1.614e-02             265.944           7.384e-03             301.310           3.431e+00     
-171.000         -90.000            1.355e-02           5.518e-03             284.144           8.029e-03             289.730           2.086e+01     
-170.000         -90.000            1.129e-02           2.344e-03             345.212           8.945e-03             279.350           2.259e+00     
-169.000         -90.000            1.756e-02           7.607e-03              32.042           9.950e-03             270.293           1.825e+00     
-168.000         -90.000            2.974e-02           1.891e-02              45.526           1.083e-02             262.404           3.145e+00     
-167.000         -90.000            4.287e-02           3.149e-02              51.226           1.139e-02             255.423           5.337e+00     
-166.000         -90.000            5.161e-02           4.015e-02              54.650           1.146e-02             249.078           9.552e+00     
-165.000         -90.000            5.231e-02           4.135e-02              57.512           1.096e-02             243.115           2.512e+01     
-164.000         -90.000            4.451e-02           3.460e-02              60.878           9.916e-03             237.286           3.834e+01     
-163.000         -90.000            3.111e-02           2.269e-02              66.289           8.421e-03             231.321           8.597e+00     
