Theta [deg.]  Phi   [deg.]  Abs(Dir.)[      ]   Abs(Theta)[      ]  Phase(Theta)[deg.]  Abs(Phi  )[      ]  Phase(Phi  )[deg.]  Ax.Ratio[      ]    
------------------------------------------------------------------------------------------------------------------------------------------------------
-180.000         -90.000            6.483e-03           1.617e-06             143.913           6.482e-03             180.363           1.066e+02     
-179.000         -90.000            1.143e-02           5.125e-03             120.782           6.307e-03             179.094           1.811e+00     
-178.000         -90.000            2.390e-02           1.803e-02             120.719           5.870e-03             175.548           2.431e+00     
-177.000         -90.000            3.860e-02           3.331e-02             120.917           5.292e-03             169.491           3.600e+00     
-176.000         -90.000            4.931e-02           4.458e-02             121.346           4.732e-03             160.696           5.161e+00     
-175.000         -90.000            5.157e-02           4.721e-02             122.115           4.361e-03             149.253           7.750e+00     
-174.000         -90.000            4.455e-02           4.024e-02             123.490           4.311e-03             136.003           1.555e+01     
-173.000         -90.000            3.137e-02           2.673e-02             126.143           4.646e-03             122.499           4.429e+01     
-172.000         -90.000            1.767e-02           1.233e-02             132.272           5.342e-03             110.211           5.620e+00     
-171.000         -90.000            9.151e-03           2.863e-03             154.127           6.288e-03              99.798           2.201e+00     
-170.000         -90.000            9.122e-03           1.817e-03             242.541           7.305e-03              91.191           5.023e+00     
-169.000         -90.000            1.716e-02           8.978e-03             274.815           8.179e-03              83.999           1.057e+01     
-168.000         -90.000            2.935e-02           2.064e-02             282.994           8.711e-03              77.790           4.938e+00     
-167.000         -90.000            4.009e-02           3.134e-02             286.978           8.755e-03              72.184           3.991e+00     
-166.000         -90.000            4.451e-02           3.625e-02             290.029           8.255e-03              66.851           3.472e+00     
-165.000         -90.000            4.057e-02           3.331e-02             293.487           7.254e-03              61.475           2.975e+00     
-164.000         -90.000            2.993e-02           2.404e-02             298.855           5.890e-03              55.694           2.403e+00     
-163.000         -90.000            1.722e-02           1.286e-02             309.710           4.365e-03              48.987           1.762e+00     
