Theta [deg.]  Phi   [deg.]  Abs(Dir.)[      ]   Abs(Theta)[      ]  Phase(Theta)[deg.]  Abs(Phi  )[      ]  Phase(Phi  )[deg.]  Ax.Ratio[      ]    
------------------------------------------------------------------------------------------------------------------------------------------------------
-180.000         -90.000            1.439e-03           2.582e-06             345.684           1.436e-03             339.446           2.174e+02     
-179.000         -90.000            8.030e-03           6.609e-03             138.567           1.421e-03             337.854           7.806e+00     
-178.000         -90.000            2.469e-02           2.332e-02             139.173           1.372e-03             332.960           1.826e+01     
-177.000         -90.000            4.250e-02           4.118e-02             139.929           1.319e-03             325.067           6.438e+01     
-176.000         -90.000            5.197e-02           5.068e-02             141.171           1.289e-03             314.864           5.852e+01     
-175.000         -90.000            4.817e-02           4.688e-02             143.387           1.293e-03             303.414           1.806e+01     
-174.000         -90.000            3.341e-02           3.209e-02             147.796           1.317e-03             291.753           8.619e+00     
-173.000         -90.000            1.593e-02           1.461e-02             158.572           1.321e-03             280.464           4.022e+00     
-172.000         -90.000            5.495e-03           4.231e-03             196.250           1.264e-03             269.517           1.975e+00     
-171.000         -90.000            8.108e-03           6.989e-03             264.310           1.119e-03             258.362           2.794e+01     
-170.000         -90.000            2.282e-02           2.193e-02             286.882           8.962e-04             245.935           7.727e+00     
-169.000         -90.000            4.222e-02           4.158e-02             294.791           6.419e-04             230.373           8.950e+00     
-168.000         -90.000            5.637e-02           5.594e-02             299.115           4.278e-04             208.516           1.144e+01     
-167.000         -90.000            5.802e-02           5.770e-02             302.715           3.240e-04             177.546           1.635e+01     
-166.000         -90.000            4.647e-02           4.610e-02             307.279           3.723e-04             143.600           3.989e+01     
-165.000         -90.000            2.788e-02           2.732e-02             315.536           5.679e-04             117.483           2.280e+01     
-164.000         -90.000            1.211e-02           1.126e-02             336.022           8.576e-04              99.480           4.449e+00     
-163.000         -90.000            7.642e-03           6.486e-03              28.405           1.156e-03              86.048           2.967e+00     
