Theta [deg.]  Phi   [deg.]  Abs(Dir.)[      ]   Abs(Theta)[      ]  Phase(Theta)[deg.]  Abs(Phi  )[      ]  Phase(Phi  )[deg.]  Ax.Ratio[      ]    
------------------------------------------------------------------------------------------------------------------------------------------------------
-180.000         -90.000            7.514e-03           2.767e-07             240.755           7.514e-03               6.123           2.021e+02     
-179.000         -90.000            1.334e-02           5.950e-03             304.039           7.392e-03               4.823           1.725e+00     
-178.000         -90.000            2.675e-02           1.972e-02             304.342           7.026e-03               1.067           2.279e+00     
-177.000         -90.000            3.859e-02           3.204e-02             304.677           6.550e-03             354.835           3.152e+00     
-176.000         -90.000            4.079e-02           3.466e-02             305.270           6.136e-03             346.282           4.014e+00     
-175.000         -90.000            3.180e-02           2.586e-02             306.520           5.939e-03             335.985           5.017e+00     
-174.000         -90.000            1.765e-02           1.162e-02             309.827           6.035e-03             324.991           7.933e+00     
-173.000         -90.000            7.881e-03           1.485e-03             327.538           6.396e-03             314.462           1.121e+01     
-172.000         -90.000            9.072e-03           2.183e-03              99.205           6.888e-03             305.183           5.146e+00     
-171.000         -90.000            2.048e-02           1.316e-02             112.789           7.318e-03             297.409           2.587e+01     
-170.000         -90.000            3.457e-02           2.709e-02             116.336           7.486e-03             291.014           2.614e+01     
-169.000         -90.000            4.208e-02           3.482e-02             118.760           7.259e-03             285.755           1.168e+01     
-168.000         -90.000            3.809e-02           3.149e-02             121.868           6.604e-03             281.372           7.409e+00     
-167.000         -90.000            2.522e-02           1.961e-02             127.838           5.604e-03             277.642           4.563e+00     
-166.000         -90.000            1.170e-02           7.280e-03             144.292           4.417e-03             274.373           2.252e+00     
-165.000         -90.000            5.942e-03           2.711e-03             204.367           3.232e-03             271.385           1.525e+00     
-164.000         -90.000            1.107e-02           8.863e-03             255.315           2.202e-03             268.457           1.092e+01     
-163.000         -90.000            2.301e-02           2.159e-02             269.499           1.417e-03             265.253           5.618e+01     
