Theta [deg.]  Phi   [deg.]  Abs(Dir.)[      ]   Abs(Theta)[      ]  Phase(Theta)[deg.]  Abs(Phi  )[      ]  Phase(Phi  )[deg.]  Ax.Ratio[      ]    
------------------------------------------------------------------------------------------------------------------------------------------------------
-180.000         -90.000            1.324e-02           1.139e-06              97.355           1.324e-02             331.590           1.329e+02     
-179.000         -90.000            1.679e-02           3.297e-03             153.770           1.349e-02             330.570           4.507e+01     
-178.000         -90.000            2.562e-02           1.137e-02             154.461           1.425e-02             327.659           1.694e+01     
-177.000         -90.000            3.563e-02           2.007e-02             155.076           1.556e-02             323.316           9.790e+00     
-176.000         -90.000            4.236e-02           2.495e-02             155.991           1.741e-02             318.122           6.469e+00     
-175.000         -90.000            4.324e-02           2.355e-02             157.594           1.968e-02             312.602           4.532e+00     
-174.000         -90.000            3.880e-02           1.666e-02             160.775           2.214e-02             307.101           3.345e+00     
-173.000         -90.000            3.231e-02           7.920e-03             168.477           2.439e-02             301.770           2.842e+00     
-172.000         -90.000            2.797e-02           1.987e-03             196.836           2.598e-02             296.610           3.678e+00     
-171.000         -90.000            2.864e-02           2.132e-03             277.216           2.651e-02             291.529           1.534e+01     
-170.000         -90.000            3.428e-02           8.568e-03             304.184           2.571e-02             286.384           7.420e+00     
-169.000         -90.000            4.189e-02           1.832e-02             311.869           2.358e-02             280.991           3.655e+00     
-168.000         -90.000            4.703e-02           2.666e-02             315.487           2.037e-02             275.136           2.754e+00     
-167.000         -90.000            4.606e-02           2.953e-02             318.085           1.653e-02             268.563           2.307e+00     
-166.000         -90.000            3.810e-02           2.549e-02             321.059           1.262e-02             260.980           1.935e+00     
-165.000         -90.000            2.563e-02           1.654e-02             326.188           9.091e-03             252.079           1.512e+00     
-164.000         -90.000            1.344e-02           7.192e-03             338.714           6.249e-03             241.645           1.153e+00     
-163.000         -90.000            6.482e-03           2.321e-03              21.854           4.161e-03             229.791           4.215e+00     
