Theta [deg.]  Phi   [deg.]  Abs(Dir.)[      ]   Abs(Theta)[      ]  Phase(Theta)[deg.]  Abs(Phi  )[      ]  Phase(Phi  )[deg.]  Ax.Ratio[      ]    
------------------------------------------------------------------------------------------------------------------------------------------------------
-180.000         -90.000            2.422e-03           5.008e-08              32.096           2.421e-03               6.726           3.162e+02     
-179.000         -90.000            4.697e-03           2.260e-03              10.089           2.437e-03               6.799           3.485e+01     
-178.000         -90.000            1.091e-02           8.430e-03              10.159           2.482e-03               6.955           4.266e+01     
-177.000         -90.000            1.951e-02           1.695e-02              10.364           2.555e-03               7.158           5.298e+01     
-176.000         -90.000            2.833e-02           2.568e-02              10.713           2.651e-03               7.356           5.863e+01     
-175.000         -90.000            3.521e-02           3.244e-02              11.257           2.763e-03               7.492           5.661e+01     
-174.000         -90.000            3.845e-02           3.557e-02              12.092           2.882e-03               7.509           4.750e+01     
-173.000         -90.000            3.734e-02           3.434e-02              13.385           2.997e-03               7.357           3.502e+01     
-172.000         -90.000            3.225e-02           2.915e-02              15.441           3.096e-03               6.988           2.304e+01     
-171.000         -90.000            2.454e-02           2.137e-02              18.912           3.169e-03               6.388           1.368e+01     
-170.000         -90.000            1.623e-02           1.303e-02              25.335           3.203e-03               5.530           7.279e+00     
-169.000         -90.000            9.475e-03           6.283e-03              39.114           3.191e-03               4.402           3.424e+00     
-168.000         -90.000            5.975e-03           2.846e-03              72.614           3.129e-03               3.000           1.443e+00     
-167.000         -90.000            6.606e-03           3.591e-03             120.735           3.015e-03               1.322           1.725e+00     
-166.000         -90.000            1.119e-02           8.332e-03             145.572           2.854e-03             359.375           3.864e+00     
-165.000         -90.000            1.854e-02           1.589e-02             156.170           2.653e-03             357.166           7.842e+00     
-164.000         -90.000            2.682e-02           2.439e-02             161.717           2.423e-03             354.719           1.544e+01     
-163.000         -90.000            3.394e-02           3.177e-02             165.260           2.174e-03             352.056           3.449e+01     
