Theta [deg.]  Phi   [deg.]  Abs(Dir.)[      ]   Abs(Theta)[      ]  Phase(Theta)[deg.]  Abs(Phi  )[      ]  Phase(Phi  )[deg.]  Ax.Ratio[      ]    
------------------------------------------------------------------------------------------------------------------------------------------------------
-180.000         -90.000            7.270e-02           1.328e-08             298.913           7.270e-02             295.010           3.162e+02     
-179.000         -90.000            7.422e-02           2.424e-03              88.086           7.180e-02             294.551           1.255e+01     
-178.000         -90.000            7.834e-02           9.145e-03              88.312           6.919e-02             293.164           7.272e+00     
-177.000         -90.000            8.376e-02           1.859e-02              88.663           6.517e-02             290.810           6.223e+00     
-176.000         -90.000            8.871e-02           2.855e-02              89.190           6.016e-02             287.427           6.691e+00     
-175.000         -90.000            9.138e-02           3.670e-02              89.956           5.468e-02             282.943           8.965e+00     
-174.000         -90.000            9.042e-02           4.118e-02              91.057           4.924e-02             277.295           1.843e+01     
-173.000         -90.000            8.533e-02           4.098e-02              92.658           4.435e-02             270.470           5.240e+01     
-172.000         -90.000            7.662e-02           3.625e-02              95.054           4.037e-02             262.549           9.141e+00     
-171.000         -90.000            6.573e-02           2.819e-02              98.818           3.753e-02             253.750           4.549e+00     
-170.000         -90.000            5.473e-02           1.883e-02             105.206           3.590e-02             244.427           2.875e+00     
-169.000         -90.000            4.589e-02           1.051e-02             117.340           3.538e-02             235.004           2.240e+00     
-168.000         -90.000            4.109e-02           5.372e-03             142.871           3.572e-02             225.865           2.605e+00     
-167.000         -90.000            4.143e-02           4.838e-03             184.494           3.660e-02             217.265           5.574e+00     
-166.000         -90.000            4.693e-02           9.289e-03             214.980           3.764e-02             209.308           2.535e+01     
-165.000         -90.000            5.649e-02           1.799e-02             229.836           3.850e-02             201.982           4.365e+00     
-164.000         -90.000            6.810e-02           2.923e-02             237.815           3.888e-02             195.199           2.599e+00     
-163.000         -90.000            7.926e-02           4.071e-02             242.931           3.855e-02             188.839           1.960e+00     
