Theta [deg.]  Phi   [deg.]  Abs(Dir.)[      ]   Abs(Theta)[      ]  Phase(Theta)[deg.]  Abs(Phi  )[      ]  Phase(Phi  )[deg.]  Ax.Ratio[      ]    
------------------------------------------------------------------------------------------------------------------------------------------------------
-180.000         -90.000            1.710e-02           4.535e-06              91.836           1.710e-02             113.006           1.701e+02     
-179.000         -90.000            2.494e-02           8.121e-03             169.991           1.682e-02             110.668           1.975e+00     
-178.000         -90.000            4.178e-02           2.523e-02             170.777           1.655e-02             104.572           1.616e+00     
-177.000         -90.000            5.315e-02           3.631e-02             171.310           1.684e-02              95.511           1.587e+00     
-176.000         -90.000            4.980e-02           3.164e-02             172.180           1.817e-02              85.038           1.326e+00     
-175.000         -90.000            3.593e-02           1.532e-02             174.466           2.062e-02              74.934           1.251e+00     
-174.000         -90.000            2.548e-02           1.756e-03             188.129           2.372e-02              66.320           4.418e+00     
-173.000         -90.000            2.978e-02           3.179e-03             332.947           2.660e-02              59.441           2.899e+00     
-172.000         -90.000            4.732e-02           1.903e-02             342.086           2.829e-02              54.028           1.460e+00     
-171.000         -90.000            6.452e-02           3.641e-02             344.364           2.812e-02              49.653           1.592e+00     
-170.000         -90.000            6.698e-02           4.103e-02             346.036           2.595e-02              45.876           1.827e+00     
-169.000         -90.000            5.146e-02           2.925e-02             348.760           2.220e-02              42.259           2.016e+00     
-168.000         -90.000            2.862e-02           1.098e-02             356.506           1.765e-02              38.320           2.717e+00     
-167.000         -90.000            1.432e-02           1.202e-03              51.555           1.312e-02              33.453           1.152e+01     
-166.000         -90.000            1.685e-02           7.573e-03             136.468           9.275e-03              26.884           1.439e+00     
-165.000         -90.000            3.081e-02           2.434e-02             147.636           6.466e-03              17.734           2.850e+00     
-164.000         -90.000            4.227e-02           3.752e-02             152.201           4.741e-03               5.539           5.587e+00     
-163.000         -90.000            4.056e-02           3.661e-02             156.664           3.945e-03             351.219           1.335e+01     
