Theta [deg.]  Phi   [deg.]  Abs(Dir.)[      ]   Abs(Theta)[      ]  Phase(Theta)[deg.]  Abs(Phi  )[      ]  Phase(Phi  )[deg.]  Ax.Ratio[      ]    
------------------------------------------------------------------------------------------------------------------------------------------------------
-180.000         -90.000            2.865e-03           1.585e-08              95.099           2.865e-03             215.317           3.162e+02     
-179.000         -90.000            4.691e-03           1.820e-03              43.330           2.871e-03             214.326           1.304e+01     
-178.000         -90.000            9.873e-03           6.975e-03              43.449           2.898e-03             211.366           1.039e+01     
-177.000         -90.000            1.760e-02           1.463e-02              43.711           2.975e-03             206.582           8.949e+00     
-176.000         -90.000            2.668e-02           2.354e-02              44.116           3.139e-03             200.278           7.548e+00     
-175.000         -90.000            3.573e-02           3.230e-02              44.692           3.439e-03             192.942           6.285e+00     
-174.000         -90.000            4.342e-02           3.949e-02              45.485           3.924e-03             185.182           5.199e+00     
-173.000         -90.000            4.866e-02           4.403e-02              46.565           4.639e-03             177.569           4.279e+00     
-172.000         -90.000            5.084e-02           4.523e-02              48.038           5.614e-03             170.505           3.496e+00     
-171.000         -90.000            4.986e-02           4.300e-02              50.073           6.860e-03             164.174           2.826e+00     
-170.000         -90.000            4.617e-02           3.781e-02              52.942           8.368e-03             158.595           2.252e+00     
-169.000         -90.000            4.071e-02           3.061e-02              57.124           1.010e-02             153.689           1.764e+00     
-168.000         -90.000            3.470e-02           2.271e-02              63.475           1.199e-02             149.340           1.387e+00     
-167.000         -90.000            2.946e-02           1.549e-02              73.591           1.397e-02             145.429           1.386e+00     
-166.000         -90.000            2.618e-02           1.026e-02              90.118           1.592e-02             141.847           2.143e+00     
-165.000         -90.000            2.575e-02           7.991e-03             114.750           1.776e-02             138.501           5.173e+00     
-164.000         -90.000            2.857e-02           9.204e-03             141.449           1.936e-02             135.311           1.996e+01     
-163.000         -90.000            3.450e-02           1.386e-02             161.311           2.064e-02             132.207           3.940e+00     
