Theta [deg.]  Phi   [deg.]  Abs(Dir.)[      ]   Abs(Theta)[      ]  Phase(Theta)[deg.]  Abs(Phi  )[      ]  Phase(Phi  )[deg.]  Ax.Ratio[      ]    
------------------------------------------------------------------------------------------------------------------------------------------------------
-180.000         -90.000            3.167e-02           7.375e-08             200.097           3.167e-02             349.893           3.162e+02     
-179.000         -90.000            3.495e-02           3.617e-03             356.676           3.133e-02             349.285           2.548e+01     
-178.000         -90.000            4.375e-02           1.337e-02             356.804           3.038e-02             347.442           1.327e+01     
-177.000         -90.000            5.512e-02           2.616e-02             356.964           2.896e-02             344.339           9.052e+00     
-176.000         -90.000            6.519e-02           3.792e-02             357.208           2.727e-02             339.953           6.685e+00     
-175.000         -90.000            7.049e-02           4.492e-02             357.594           2.557e-02             334.290           5.060e+00     
-174.000         -90.000            6.905e-02           4.496e-02             358.214           2.408e-02             327.430           3.839e+00     
-173.000         -90.000            6.107e-02           3.806e-02             359.254           2.301e-02             319.562           2.885e+00     
-172.000         -90.000            4.889e-02           2.645e-02               1.131           2.245e-02             310.991           2.149e+00     
-171.000         -90.000            3.624e-02           1.382e-02               5.058           2.242e-02             302.091           1.735e+00     
-170.000         -90.000            2.707e-02           4.223e-03              16.477           2.284e-02             293.225           2.349e+00     
-169.000         -90.000            2.428e-02           7.200e-04              84.599           2.356e-02             284.654           1.713e+01     
-168.000         -90.000            2.886e-02           4.494e-03             149.186           2.436e-02             276.507           3.151e+00     
-167.000         -90.000            3.950e-02           1.448e-02             160.425           2.503e-02             268.790           1.536e+00     
-166.000         -90.000            5.305e-02           2.771e-02             164.824           2.535e-02             261.423           1.132e+00     
-165.000         -90.000            6.545e-02           4.027e-02             167.589           2.518e-02             254.282           1.274e+00     
-164.000         -90.000            7.296e-02           4.850e-02             170.032           2.446e-02             247.216           1.510e+00     
-163.000         -90.000            7.332e-02           5.012e-02             172.820           2.320e-02             240.069           1.765e+00     
