Theta [deg.]  Phi   [deg.]  Abs(Dir.)[      ]   Abs(Theta)[      ]  Phase(Theta)[deg.]  Abs(Phi  )[      ]  Phase(Phi  )[deg.]  Ax.Ratio[      ]    
------------------------------------------------------------------------------------------------------------------------------------------------------
-180.000         -90.000            1.359e-03           5.707e-10              25.202           1.359e-03             200.243           3.162e+02     
-179.000         -90.000            4.424e-03           3.066e-03             349.507           1.357e-03             200.161           4.003e+00     
-178.000         -90.000            1.295e-02           1.160e-02             349.654           1.352e-03             199.915           6.333e+00     
-177.000         -90.000            2.510e-02           2.376e-02             349.903           1.342e-03             199.499           8.889e+00     
-176.000         -90.000            3.826e-02           3.693e-02             350.286           1.326e-03             198.904           1.132e+01     
-175.000         -90.000            4.960e-02           4.830e-02             350.851           1.305e-03             198.115           1.357e+01     
-174.000         -90.000            5.672e-02           5.545e-02             351.672           1.276e-03             197.113           1.564e+01     
-173.000         -90.000            5.816e-02           5.693e-02             352.871           1.238e-03             195.872           1.768e+01     
-172.000         -90.000            5.370e-02           5.251e-02             354.656           1.190e-03             194.358           2.010e+01     
-171.000         -90.000            4.441e-02           4.328e-02             357.404           1.133e-03             192.533           2.426e+01     
-170.000         -90.000            3.242e-02           3.135e-02               1.893           1.067e-03             190.338           3.815e+01     
-169.000         -90.000            2.043e-02           1.944e-02               9.875           9.927e-04             187.711           1.232e+02     
-168.000         -90.000            1.116e-02           1.025e-02              25.748           9.134e-04             184.571           9.997e+00     
-167.000         -90.000            6.737e-03           5.905e-03              57.833           8.318e-04             180.826           3.323e+00     
-166.000         -90.000            8.262e-03           7.511e-03              97.159           7.516e-04             176.373           3.230e+00     
-165.000         -90.000            1.558e-02           1.490e-02             120.178           6.770e-04             171.113           6.154e+00     
-164.000         -90.000            2.731e-02           2.669e-02             131.528           6.120e-04             164.979           1.217e+01     
-163.000         -90.000            4.117e-02           4.061e-02             137.897           5.604e-04             157.971           2.510e+01     
