Theta [deg.]  Phi   [deg.]  Abs(Dir.)[      ]   Abs(Theta)[      ]  Phase(Theta)[deg.]  Abs(Phi  )[      ]  Phase(Phi  )[deg.]  Ax.Ratio[      ]    
------------------------------------------------------------------------------------------------------------------------------------------------------
-180.000         -90.000            4.512e-02           3.760e-07             126.929           4.512e-02             224.854           3.162e+02     
-179.000         -90.000            4.644e-02           1.719e-03             282.091           4.472e-02             224.696           6.124e+00     
-178.000         -90.000            5.025e-02           6.667e-03             282.317           4.358e-02             224.222           3.155e+00     
-177.000         -90.000            5.573e-02           1.397e-02             282.439           4.175e-02             223.419           2.246e+00     
-176.000         -90.000            6.168e-02           2.235e-02             282.566           3.933e-02             222.271           1.856e+00     
-175.000         -90.000            6.676e-02           3.033e-02             282.737           3.643e-02             220.751           1.680e+00     
-174.000         -90.000            6.970e-02           3.651e-02             282.986           3.319e-02             218.824           1.599e+00     
-173.000         -90.000            6.957e-02           3.981e-02             283.362           2.976e-02             216.443           1.553e+00     
-172.000         -90.000            6.595e-02           3.968e-02             283.936           2.627e-02             213.550           1.503e+00     
-171.000         -90.000            5.903e-02           3.615e-02             284.826           2.289e-02             210.077           1.426e+00     
-170.000         -90.000            4.957e-02           2.986e-02             286.249           1.971e-02             205.943           1.309e+00     
-169.000         -90.000            3.880e-02           2.195e-02             288.627           1.685e-02             201.068           1.149e+00     
-168.000         -90.000            2.822e-02           1.384e-02             292.926           1.438e-02             195.386           1.143e+00     
-167.000         -90.000            1.934e-02           6.999e-03             301.812           1.234e-02             188.870           1.656e+00     
-166.000         -90.000            1.347e-02           2.710e-03             324.494           1.076e-02             181.574           3.879e+00     
-165.000         -90.000            1.143e-02           1.821e-03              17.102           9.605e-03             173.665           6.720e+00     
-164.000         -90.000            1.349e-02           4.629e-03              54.607           8.856e-03             165.439           1.646e+00     
-163.000         -90.000            1.928e-02           1.082e-02              68.462           8.455e-03             157.272           1.133e+00     
