Theta [deg.]  Phi   [deg.]  Abs(Dir.)[      ]   Abs(Theta)[      ]  Phase(Theta)[deg.]  Abs(Phi  )[      ]  Phase(Phi  )[deg.]  Ax.Ratio[      ]    
------------------------------------------------------------------------------------------------------------------------------------------------------
-180.000         -90.000            4.586e-02           1.920e-08             162.072           4.585e-02             259.377           3.162e+02     
-179.000         -90.000            4.940e-02           4.014e-03             151.185           4.539e-02             258.879           3.561e+00     
-178.000         -90.000            5.888e-02           1.484e-02             151.335           4.404e-02             257.382           1.859e+00     
-177.000         -90.000            7.124e-02           2.928e-02             151.628           4.196e-02             254.863           1.344e+00     
-176.000         -90.000            8.247e-02           4.310e-02             152.099           3.937e-02             251.292           1.182e+00     
-175.000         -90.000            8.880e-02           5.227e-02             152.820           3.653e-02             246.642           1.211e+00     
-174.000         -90.000            8.789e-02           5.416e-02             153.920           3.374e-02             240.914           1.274e+00     
-173.000         -90.000            7.953e-02           4.831e-02             155.645           3.122e-02             234.161           1.348e+00     
-172.000         -90.000            6.575e-02           3.657e-02             158.506           2.917e-02             226.515           1.507e+00     
-171.000         -90.000            5.018e-02           2.249e-02             163.760           2.770e-02             218.198           1.962e+00     
-170.000         -90.000            3.707e-02           1.028e-02             175.336           2.679e-02             209.501           3.708e+00     
-169.000         -90.000            2.993e-02           3.553e-03             208.565           2.638e-02             200.731           2.264e+01     
-168.000         -90.000            3.059e-02           4.285e-03             268.748           2.630e-02             192.146           2.573e+00     
-167.000         -90.000            3.858e-02           1.224e-02             295.827           2.635e-02             183.917           1.742e+00     
-166.000         -90.000            5.138e-02           2.508e-02             306.076           2.630e-02             176.112           2.144e+00     
-165.000         -90.000            6.503e-02           3.908e-02             311.491           2.595e-02             168.718           3.047e+00     
-164.000         -90.000            7.539e-02           5.023e-02             315.274           2.516e-02             161.665           4.552e+00     
-163.000         -90.000            7.925e-02           5.543e-02             318.659           2.382e-02             154.848           7.692e+00     
