Theta [deg.]  Phi   [deg.]  Abs(Dir.)[      ]   Abs(Theta)[      ]  Phase(Theta)[deg.]  Abs(Phi  )[      ]  Phase(Phi  )[deg.]  Ax.Ratio[      ]    
------------------------------------------------------------------------------------------------------------------------------------------------------
-180.000         -90.000            1.090e-03           8.453e-08             313.375           1.090e-03             343.988           2.230e+02     
-179.000         -90.000            3.822e-03           2.739e-03             297.475           1.083e-03             343.457           2.718e+00     
-178.000         -90.000            1.100e-02           9.943e-03             297.619           1.061e-03             341.895           4.637e+00     
-177.000         -90.000            2.012e-02           1.910e-02             297.958           1.027e-03             339.324           6.727e+00     
-176.000         -90.000            2.800e-02           2.701e-02             298.537           9.847e-04             335.791           8.855e+00     
-175.000         -90.000            3.190e-02           3.096e-02             299.484           9.374e-04             331.372           1.112e+01     
-174.000         -90.000            3.052e-02           2.963e-02             301.044           8.882e-04             326.181           1.393e+01     
-173.000         -90.000            2.440e-02           2.356e-02             303.740           8.387e-04             320.364           1.913e+01     
-172.000         -90.000            1.577e-02           1.498e-02             308.876           7.888e-04             314.095           5.041e+01     
-171.000         -90.000            7.725e-03           6.989e-03             320.541           7.362e-04             307.533           1.506e+01     
-170.000         -90.000            3.177e-03           2.499e-03             354.468           6.776e-04             300.806           2.654e+00     
-169.000         -90.000            3.819e-03           3.209e-03              53.370           6.096e-04             293.970           2.773e+00     
-168.000         -90.000            9.562e-03           9.032e-03              79.150           5.297e-04             286.984           9.254e+00     
-167.000         -90.000            1.857e-02           1.813e-02              88.713           4.381e-04             279.665           3.465e+01     
-166.000         -90.000            2.791e-02           2.757e-02              93.516           3.383e-04             271.598           2.731e+02     
-165.000         -90.000            3.453e-02           3.429e-02              96.649           2.381e-04             261.913           4.749e+01     
-164.000         -90.000            3.630e-02           3.615e-02              99.318           1.486e-04             248.659           3.068e+01     
-163.000         -90.000            3.271e-02           3.262e-02             102.306           8.352e-05             227.315           2.415e+01     
