Theta [deg.]  Phi   [deg.]  Abs(Dir.)[      ]   Abs(Theta)[      ]  Phase(Theta)[deg.]  Abs(Phi  )[      ]  Phase(Phi  )[deg.]  Ax.Ratio[      ]    
------------------------------------------------------------------------------------------------------------------------------------------------------
-180.000         -90.000            1.135e-01           2.073e-07             175.968           1.135e-01             329.437           3.162e+02     
-179.000         -90.000            1.145e-01           2.716e-03              66.015           1.118e-01             329.102           6.464e+00     
-178.000         -90.000            1.169e-01           1.014e-02              65.812           1.067e-01             328.108           3.279e+00     
-177.000         -90.000            1.190e-01           2.022e-02              65.799           9.878e-02             326.415           2.255e+00     
-176.000         -90.000            1.189e-01           3.015e-02              65.880           8.871e-02             323.953           1.791e+00     
-175.000         -90.000            1.145e-01           3.716e-02              66.066           7.738e-02             320.619           1.585e+00     
-174.000         -90.000            1.050e-01           3.930e-02              66.412           6.569e-02             316.274           1.560e+00     
-173.000         -90.000            9.045e-02           3.594e-02              67.029           5.452e-02             310.745           1.686e+00     
-172.000         -90.000            7.258e-02           2.801e-02              68.155           4.457e-02             303.842           1.983e+00     
-171.000         -90.000            5.407e-02           1.773e-02              70.374           3.634e-02             295.410           2.630e+00     
-170.000         -90.000            3.811e-02           8.034e-03              75.608           3.008e-02             285.430           4.718e+00     
-169.000         -90.000            2.759e-02           1.791e-03              95.071           2.580e-02             274.153           2.533e+02     
-168.000         -90.000            2.432e-02           1.036e-03             190.058           2.328e-02             262.167           5.002e+00     
-167.000         -90.000            2.860e-02           6.422e-03             221.816           2.218e-02             250.259           4.825e+00     
-166.000         -90.000            3.907e-02           1.702e-02             228.857           2.204e-02             239.124           1.123e+01     
-165.000         -90.000            5.296e-02           3.055e-02             231.809           2.241e-02             229.142           4.346e+01     
-164.000         -90.000            6.677e-02           4.393e-02             233.526           2.284e-02             220.384           9.161e+00     
-163.000         -90.000            7.704e-02           5.403e-02             234.848           2.301e-02             212.728           5.625e+00     
