Theta [deg.]  Phi   [deg.]  Abs(Dir.)[      ]   Abs(Theta)[      ]  Phase(Theta)[deg.]  Abs(Phi  )[      ]  Phase(Phi  )[deg.]  Ax.Ratio[      ]    
------------------------------------------------------------------------------------------------------------------------------------------------------
-180.000         -90.000            1.402e-03           2.078e-07              99.507           1.402e-03             185.372           8.236e+01     
-179.000         -90.000            5.302e-03           3.898e-03             191.074           1.403e-03             184.535           1.986e+01     
-178.000         -90.000            1.587e-02           1.446e-02             191.388           1.410e-03             182.086           2.170e+01     
-177.000         -90.000            3.002e-02           2.859e-02             191.649           1.430e-03             178.172           2.009e+01     
-176.000         -90.000            4.366e-02           4.219e-02             191.998           1.472e-03             173.049           1.700e+01     
-175.000         -90.000            5.286e-02           5.132e-02             192.521           1.544e-03             167.075           1.375e+01     
-174.000         -90.000            5.503e-02           5.338e-02             193.338           1.650e-03             160.659           1.077e+01     
-173.000         -90.000            4.966e-02           4.787e-02             194.665           1.789e-03             154.180           8.144e+00     
-172.000         -90.000            3.844e-02           3.649e-02             196.947           1.953e-03             147.922           5.861e+00     
-171.000         -90.000            2.475e-02           2.263e-02             201.277           2.127e-03             142.046           3.896e+00     
-170.000         -90.000            1.265e-02           1.036e-02             211.066           2.290e-03             136.607           2.252e+00     
-169.000         -90.000            5.680e-03           3.258e-03             240.900           2.421e-03             131.585           1.456e+00     
-168.000         -90.000            5.834e-03           3.334e-03             305.769           2.500e-03             126.919           1.007e+02     
-167.000         -90.000            1.302e-02           1.051e-02             334.900           2.509e-03             122.529           4.514e+00     
-166.000         -90.000            2.510e-02           2.266e-02             344.730           2.441e-03             118.323           4.434e+00     
-165.000         -90.000            3.857e-02           3.627e-02             349.442           2.299e-03             114.232           4.941e+00     
-164.000         -90.000            4.955e-02           4.746e-02             352.422           2.090e-03             110.167           5.437e+00     
-163.000         -90.000            5.495e-02           5.311e-02             354.880           1.833e-03             106.046           5.799e+00     
