Theta [deg.]  Phi   [deg.]  Abs(Dir.)[      ]   Abs(Theta)[      ]  Phase(Theta)[deg.]  Abs(Phi  )[      ]  Phase(Phi  )[deg.]  Ax.Ratio[      ]    
------------------------------------------------------------------------------------------------------------------------------------------------------
-180.000         -90.000            1.366e-02           1.252e-07             144.648           1.366e-02             290.558           3.162e+02     
-179.000         -90.000            1.747e-02           3.817e-03              97.023           1.365e-02             290.276           1.046e+01     
-178.000         -90.000            2.673e-02           1.314e-02              97.103           1.359e-02             289.431           9.261e+00     
-177.000         -90.000            3.633e-02           2.290e-02              97.482           1.343e-02             288.063           1.119e+01     
-176.000         -90.000            4.086e-02           2.776e-02              98.236           1.310e-02             286.221           1.536e+01     
-175.000         -90.000            3.756e-02           2.505e-02              99.679           1.250e-02             283.951           2.845e+01     
-174.000         -90.000            2.782e-02           1.626e-02             102.702           1.156e-02             281.275           8.151e+01     
-173.000         -90.000            1.652e-02           6.283e-03             110.939           1.024e-02             278.171           9.212e+00     
-172.000         -90.000            9.456e-03           8.960e-04             157.204           8.560e-03             274.556           3.564e+00     
-171.000         -90.000            1.028e-02           3.652e-03             244.768           6.632e-03             270.230           4.645e+00     
-170.000         -90.000            1.859e-02           1.396e-02             259.033           4.633e-03             264.774           2.307e+01     
-169.000         -90.000            3.010e-02           2.730e-02             264.036           2.794e-03             257.214           2.897e+01     
-168.000         -90.000            3.881e-02           3.746e-02             267.301           1.352e-03             244.825           1.420e+01     
-167.000         -90.000            4.023e-02           3.973e-02             270.664           4.967e-04             218.097           1.132e+01     
-166.000         -90.000            3.360e-02           3.327e-02             275.488           3.264e-04             160.461           1.116e+01     
-165.000         -90.000            2.240e-02           2.158e-02             284.210           8.186e-04             119.045           2.076e+01     
-164.000         -90.000            1.263e-02           1.079e-02             303.386           1.834e-03             100.931           7.293e+00     
-163.000         -90.000            9.846e-03           6.697e-03             344.780           3.149e-03              89.924           1.594e+00     
