Theta [deg.]  Phi   [deg.]  Abs(Dir.)[      ]   Abs(Theta)[      ]  Phase(Theta)[deg.]  Abs(Phi  )[      ]  Phase(Phi  )[deg.]  Ax.Ratio[      ]    
------------------------------------------------------------------------------------------------------------------------------------------------------
-180.000         -90.000            2.695e-02           6.493e-08             135.334           2.695e-02             256.787           3.162e+02     
-179.000         -90.000            3.023e-02           3.560e-03             293.849           2.667e-02             256.108           4.863e+00     
-178.000         -90.000            3.900e-02           1.310e-02             293.963           2.590e-02             254.057           2.963e+00     
-177.000         -90.000            5.018e-02           2.541e-02             294.109           2.476e-02             250.620           2.508e+00     
-176.000         -90.000            5.985e-02           3.637e-02             294.336           2.348e-02             245.803           2.298e+00     
-175.000         -90.000            6.456e-02           4.231e-02             294.703           2.225e-02             239.666           2.089e+00     
-174.000         -90.000            6.254e-02           4.124e-02             295.308           2.130e-02             232.369           1.820e+00     
-173.000         -90.000            5.429e-02           3.353e-02             296.354           2.076e-02             224.192           1.491e+00     
-172.000         -90.000            4.249e-02           2.180e-02             298.334           2.069e-02             215.513           1.137e+00     
-171.000         -90.000            3.106e-02           9.998e-03             302.856           2.106e-02             206.718           1.474e+00     
-170.000         -90.000            2.387e-02           2.138e-03             319.518           2.173e-02             198.119           3.842e+00     
-169.000         -90.000            2.349e-02           9.594e-04              62.431           2.253e-02             189.887           6.203e+00     
-168.000         -90.000            3.028e-02           7.039e-03              94.661           2.324e-02             182.060           1.820e+00     
-167.000         -90.000            4.227e-02           1.861e-02             101.417           2.365e-02             174.574           1.380e+00     
-166.000         -90.000            5.580e-02           3.217e-02             104.609           2.363e-02             167.303           1.684e+00     
-165.000         -90.000            6.667e-02           4.358e-02             106.948           2.309e-02             160.093           2.165e+00     
-164.000         -90.000            7.147e-02           4.943e-02             109.315           2.204e-02             152.781           2.789e+00     
-163.000         -90.000            6.868e-02           4.812e-02             112.311           2.056e-02             145.200           3.755e+00     
