Theta [deg.]  Phi   [deg.]  Abs(Dir.)[      ]   Abs(Theta)[      ]  Phase(Theta)[deg.]  Abs(Phi  )[      ]  Phase(Phi  )[deg.]  Ax.Ratio[      ]    
------------------------------------------------------------------------------------------------------------------------------------------------------
-180.000         -90.000            1.100e-02           1.776e-08              96.305           1.100e-02             286.689           3.162e+02     
-179.000         -90.000            1.665e-02           5.824e-03             126.887           1.082e-02             286.288           5.787e+00     
-178.000         -90.000            3.223e-02           2.192e-02             127.057           1.031e-02             285.086           5.550e+00     
-177.000         -90.000            5.410e-02           4.459e-02             127.325           9.510e-03             283.046           6.229e+00     
-176.000         -90.000            7.712e-02           6.863e-02             127.735           8.486e-03             280.102           6.741e+00     
-175.000         -90.000            9.589e-02           8.857e-02             128.343           7.323e-03             276.148           6.922e+00     
-174.000         -90.000            1.060e-01           9.991e-02             129.236           6.110e-03             271.025           6.790e+00     
-173.000         -90.000            1.051e-01           1.002e-01             130.561           4.931e-03             264.493           6.412e+00     
-172.000         -90.000            9.344e-02           8.957e-02             132.572           3.862e-03             256.198           5.862e+00     
-171.000         -90.000            7.366e-02           7.070e-02             135.766           2.963e-03             245.670           5.221e+00     
-170.000         -90.000            5.046e-02           4.818e-02             141.203           2.276e-03             232.345           4.602e+00     
-169.000         -90.000            2.928e-02           2.746e-02             151.476           1.827e-03             215.888           4.355e+00     
-168.000         -90.000            1.519e-02           1.357e-02             173.345           1.625e-03             196.864           7.984e+00     
-167.000         -90.000            1.168e-02           1.001e-02             213.806           1.666e-03             177.172           4.573e+00     
-166.000         -90.000            1.987e-02           1.793e-02             248.308           1.935e-03             159.057           3.045e+00     
-165.000         -90.000            3.833e-02           3.592e-02             265.080           2.404e-03             143.648           4.617e+00     
-164.000         -90.000            6.335e-02           6.031e-02             273.599           3.034e-03             130.891           7.597e+00     
-163.000         -90.000            8.984e-02           8.606e-02             278.766           3.777e-03             120.244           1.354e+01     
