Theta [deg.]  Phi   [deg.]  Abs(Dir.)[      ]   Abs(Theta)[      ]  Phase(Theta)[deg.]  Abs(Phi  )[      ]  Phase(Phi  )[deg.]  Ax.Ratio[      ]    
------------------------------------------------------------------------------------------------------------------------------------------------------
-180.000         -90.000            9.141e-03           6.144e-08             194.773           9.141e-03             153.467           3.162e+02     
-179.000         -90.000            1.313e-02           3.941e-03             342.631           9.185e-03             152.388           1.219e+01     
-178.000         -90.000            2.351e-02           1.418e-02             342.890           9.333e-03             149.276           8.567e+00     
-177.000         -90.000            3.608e-02           2.645e-02             343.284           9.633e-03             144.409           6.841e+00     
-176.000         -90.000            4.578e-02           3.565e-02             343.926           1.013e-02             138.219           5.367e+00     
-175.000         -90.000            4.882e-02           3.797e-02             344.991           1.086e-02             131.209           4.080e+00     
-174.000         -90.000            4.423e-02           3.246e-02             346.839           1.177e-02             123.837           2.983e+00     
-173.000         -90.000            3.426e-02           2.149e-02             350.387           1.277e-02             116.411           2.075e+00     
-172.000         -90.000            2.347e-02           9.757e-03             358.734           1.371e-02             109.059           1.495e+00     
-171.000         -90.000            1.683e-02           2.399e-03              29.037           1.443e-02             101.757           2.612e+00     
-170.000         -90.000            1.766e-02           2.881e-03             109.090           1.478e-02              94.374           1.056e+01     
-169.000         -90.000            2.623e-02           1.155e-02             135.274           1.468e-02              86.711           2.241e+00     
-168.000         -90.000            3.960e-02           2.547e-02             143.266           1.413e-02              78.535           1.730e+00     
-167.000         -90.000            5.276e-02           3.953e-02             147.317           1.323e-02              69.595           1.808e+00     
-166.000         -90.000            6.059e-02           4.845e-02             150.285           1.214e-02              59.659           1.997e+00     
-165.000         -90.000            5.996e-02           4.889e-02             153.304           1.107e-02              48.579           2.213e+00     
-164.000         -90.000            5.099e-02           4.080e-02             157.351           1.019e-02              36.383           2.519e+00     
-163.000         -90.000            3.704e-02           2.740e-02             164.104           9.635e-03              23.378           3.298e+00     
