Theta [deg.]  Phi   [deg.]  Abs(Dir.)[      ]   Abs(Theta)[      ]  Phase(Theta)[deg.]  Abs(Phi  )[      ]  Phase(Phi  )[deg.]  Ax.Ratio[      ]    
------------------------------------------------------------------------------------------------------------------------------------------------------
-180.000         -90.000            2.004e-04           2.300e-07             349.180           2.001e-04             141.175           6.288e+01     
-179.000         -90.000            4.654e-03           4.457e-03             161.688           1.971e-04             143.239           1.563e+01     
-178.000         -90.000            1.653e-02           1.634e-02             161.893           1.893e-04             149.466           4.365e+01     
-177.000         -90.000            3.153e-02           3.134e-02             162.238           1.878e-04             159.806           3.062e+02     
-176.000         -90.000            4.428e-02           4.407e-02             162.806           2.086e-04             172.906           8.326e+01     
-175.000         -90.000            5.023e-02           4.996e-02             163.735           2.688e-04             185.760           3.653e+01     
-174.000         -90.000            4.736e-02           4.698e-02             165.289           3.836e-04             195.733           2.197e+01     
-173.000         -90.000            3.689e-02           3.633e-02             168.032           5.633e-04             202.176           1.446e+01     
-172.000         -90.000            2.283e-02           2.202e-02             173.446           8.123e-04             205.572           1.005e+01     
-171.000         -90.000            1.052e-02           9.396e-03             186.552           1.128e-03             206.712           9.272e+00     
-170.000         -90.000            4.714e-03           3.211e-03             228.051           1.503e-03             206.218           5.591e+00     
-169.000         -90.000            7.835e-03           5.910e-03             287.072           1.925e-03             204.542           1.781e+00     
-168.000         -90.000            1.914e-02           1.676e-02             308.041           2.379e-03             202.016           2.796e+00     
-167.000         -90.000            3.498e-02           3.213e-02             316.029           2.848e-03             198.893           3.849e+00     
-166.000         -90.000            5.010e-02           4.679e-02             320.323           3.314e-03             195.384           4.696e+00     
-165.000         -90.000            5.950e-02           5.574e-02             323.448           3.753e-03             191.662           5.329e+00     
-164.000         -90.000            6.017e-02           5.603e-02             326.529           4.141e-03             187.877           5.808e+00     
-163.000         -90.000            5.217e-02           4.773e-02             330.514           4.449e-03             184.154           6.305e+00     
