Theta [deg.]  Phi   [deg.]  Abs(Dir.)[      ]   Abs(Theta)[      ]  Phase(Theta)[deg.]  Abs(Phi  )[      ]  Phase(Phi  )[deg.]  Ax.Ratio[      ]    
------------------------------------------------------------------------------------------------------------------------------------------------------
-180.000         -90.000            5.132e-03           6.408e-07             233.214           5.131e-03             199.587           1.616e+02     
-179.000         -90.000            1.407e-02           8.984e-03             199.572           5.085e-03             198.861           1.678e+02     
-178.000         -90.000            3.528e-02           3.031e-02             199.835           4.972e-03             196.587           5.070e+01     
-177.000         -90.000            5.598e-02           5.120e-02             200.596           4.781e-03             192.682           2.595e+01     
-176.000         -90.000            6.374e-02           5.923e-02             202.083           4.509e-03             186.989           1.491e+01     
-175.000         -90.000            5.406e-02           4.988e-02             204.998           4.177e-03             179.260           8.507e+00     
-174.000         -90.000            3.305e-02           2.921e-02             211.469           3.835e-03             169.210           4.416e+00     
-173.000         -90.000            1.377e-02           1.020e-02             230.563           3.571e-03             156.722           1.829e+00     
-172.000         -90.000            8.361e-03           4.879e-03             295.403           3.483e-03             142.219           4.262e+00     
-171.000         -90.000            2.073e-02           1.710e-02             339.048           3.637e-03             126.902           4.730e+00     
-170.000         -90.000            4.421e-02           4.019e-02             351.229           4.026e-03             112.293           3.795e+00     
-169.000         -90.000            6.549e-02           6.096e-02             356.467           4.537e-03              99.403           3.776e+00     
-168.000         -90.000            7.242e-02           6.745e-02             359.878           4.971e-03              88.425           3.685e+00     
-167.000         -90.000            6.106e-02           5.596e-02               3.400           5.099e-03              79.042           3.441e+00     
-166.000         -90.000            3.782e-02           3.307e-02               9.207           4.757e-03              70.756           3.109e+00     
-165.000         -90.000            1.562e-02           1.170e-02              24.351           3.923e-03              63.031           3.395e+00     
-164.000         -90.000            6.317e-03           3.566e-03              84.762           2.751e-03              55.218           3.829e+00     
-163.000         -90.000            1.405e-02           1.252e-02             140.324           1.527e-03              46.185           2.873e+00     
