Theta [deg.]  Phi   [deg.]  Abs(Dir.)[      ]   Abs(Theta)[      ]  Phase(Theta)[deg.]  Abs(Phi  )[      ]  Phase(Phi  )[deg.]  Ax.Ratio[      ]    
------------------------------------------------------------------------------------------------------------------------------------------------------
-180.000         -90.000            7.668e-03           3.789e-08             267.360           7.668e-03             304.717           3.162e+02     
-179.000         -90.000            1.208e-02           4.517e-03             164.308           7.561e-03             304.087           2.850e+00     
-178.000         -90.000            2.390e-02           1.664e-02             164.398           7.261e-03             302.154           2.888e+00     
-177.000         -90.000            3.931e-02           3.250e-02             164.689           6.804e-03             298.887           3.392e+00     
-176.000         -90.000            5.333e-02           4.708e-02             165.193           6.247e-03             294.246           3.737e+00     
-175.000         -90.000            6.144e-02           5.579e-02             166.001           5.649e-03             288.198           3.829e+00     
-174.000         -90.000            6.102e-02           5.596e-02             167.289           5.068e-03             280.748           3.678e+00     
-173.000         -90.000            5.222e-02           4.767e-02             169.405           4.549e-03             271.969           3.333e+00     
-172.000         -90.000            3.784e-02           3.373e-02             173.138           4.116e-03             262.039           2.863e+00     
-171.000         -90.000            2.246e-02           1.869e-02             180.596           3.771e-03             251.183           2.424e+00     
-170.000         -90.000            1.095e-02           7.451e-03             199.144           3.502e-03             239.670           2.962e+00     
-169.000         -90.000            6.944e-03           3.661e-03             249.344           3.283e-03             227.702           5.240e+00     
-168.000         -90.000            1.167e-02           8.585e-03             295.031           3.087e-03             215.344           1.725e+00     
-167.000         -90.000            2.365e-02           2.075e-02             311.560           2.897e-03             202.504           2.879e+00     
-166.000         -90.000            3.915e-02           3.644e-02             318.826           2.710e-03             188.952           4.930e+00     
-165.000         -90.000            5.346e-02           5.092e-02             323.110           2.543e-03             174.402           8.933e+00     
-164.000         -90.000            6.233e-02           5.990e-02             326.389           2.432e-03             158.664           2.425e+01     
-163.000         -90.000            6.327e-02           6.084e-02             329.614           2.426e-03             141.861           3.857e+01     
