Theta [deg.]  Phi   [deg.]  Abs(Dir.)[      ]   Abs(Theta)[      ]  Phase(Theta)[deg.]  Abs(Phi  )[      ]  Phase(Phi  )[deg.]  Ax.Ratio[      ]    
------------------------------------------------------------------------------------------------------------------------------------------------------
-180.000         -90.000            1.051e-02           1.648e-07             339.638           1.051e-02              95.941           2.817e+02     
-179.000         -90.000            1.391e-02           3.373e-03             318.279           1.053e-02              95.829           3.138e+00     
-178.000         -90.000            2.208e-02           1.149e-02             318.500           1.060e-02              95.477           2.540e+00     
-177.000         -90.000            3.033e-02           1.970e-02             319.074           1.063e-02              94.863           2.624e+00     
-176.000         -90.000            3.386e-02           2.331e-02             320.159           1.055e-02              93.954           2.607e+00     
-175.000         -90.000            3.050e-02           2.025e-02             322.222           1.025e-02              92.707           2.360e+00     
-174.000         -90.000            2.196e-02           1.233e-02             326.637           9.627e-03              91.064           1.923e+00     
-173.000         -90.000            1.287e-02           4.245e-03             339.487           8.628e-03              88.943           1.650e+00     
-172.000         -90.000            8.238e-03           9.705e-04              45.574           7.267e-03              86.215           4.542e+00     
-171.000         -90.000            1.060e-02           4.962e-03             106.170           5.642e-03              82.662           4.817e+00     
-170.000         -90.000            1.864e-02           1.472e-02             118.557           3.926e-03              77.855           3.473e+00     
-169.000         -90.000            2.786e-02           2.552e-02             123.797           2.342e-03              70.815           4.280e+00     
-168.000         -90.000            3.308e-02           3.197e-02             127.613           1.108e-03              58.804           5.787e+00     
-167.000         -90.000            3.130e-02           3.091e-02             131.900           3.902e-04              31.948           9.041e+00     
-166.000         -90.000            2.341e-02           2.315e-02             138.534           2.534e-04             332.590           3.977e+01     
-165.000         -90.000            1.374e-02           1.309e-02             151.633           6.485e-04             291.218           7.133e+00     
-164.000         -90.000            7.839e-03           6.414e-03             182.106           1.425e-03             273.194           2.122e+00     
-163.000         -90.000            9.517e-03           7.145e-03             229.251           2.372e-03             261.859           4.042e+00     
