Theta [deg.]  Phi   [deg.]  Abs(Dir.)[      ]   Abs(Theta)[      ]  Phase(Theta)[deg.]  Abs(Phi  )[      ]  Phase(Phi  )[deg.]  Ax.Ratio[      ]    
------------------------------------------------------------------------------------------------------------------------------------------------------
-180.000         -90.000            2.987e-04           5.349e-10             188.527           2.987e-04              69.090           3.162e+02     
-179.000         -90.000            2.977e-03           2.680e-03             354.211           2.968e-04              68.770           3.145e+00     
-178.000         -90.000            1.031e-02           1.002e-02             354.356           2.911e-04              67.820           6.135e+00     
-177.000         -90.000            2.038e-02           2.009e-02             354.617           2.822e-04              66.231           8.905e+00     
-176.000         -90.000            3.055e-02           3.027e-02             355.034           2.710e-04              63.990           1.134e+01     
-175.000         -90.000            3.818e-02           3.793e-02             355.672           2.586e-04              61.090           1.333e+01     
-174.000         -90.000            4.135e-02           4.111e-02             356.643           2.462e-04              57.540           1.481e+01     
-173.000         -90.000            3.931e-02           3.908e-02             358.144           2.350e-04              53.376           1.573e+01     
-172.000         -90.000            3.271e-02           3.248e-02               0.544           2.260e-04              48.674           1.615e+01     
-171.000         -90.000            2.337e-02           2.315e-02               4.637           2.200e-04              43.564           1.642e+01     
-170.000         -90.000            1.382e-02           1.360e-02              12.354           2.177e-04              38.217           1.835e+01     
-169.000         -90.000            6.596e-03           6.377e-03              29.266           2.191e-04              32.830           8.974e+01     
-168.000         -90.000            3.590e-03           3.365e-03              67.844           2.243e-04              27.597           6.235e+00     
-167.000         -90.000            5.548e-03           5.315e-03             111.138           2.327e-04              22.680           4.781e+00     
-166.000         -90.000            1.191e-02           1.167e-02             131.645           2.437e-04              18.190           7.567e+00     
-165.000         -90.000            2.097e-02           2.072e-02             140.942           2.567e-04              14.187           1.126e+01     
-164.000         -90.000            3.036e-02           3.009e-02             146.108           2.706e-04              10.684           1.509e+01     
-163.000         -90.000            3.766e-02           3.737e-02             149.607           2.846e-04               7.662           1.868e+01     
