Theta [deg.]  Phi   [deg.]  Abs(Dir.)[      ]   Abs(Theta)[      ]  Phase(Theta)[deg.]  Abs(Phi  )[      ]  Phase(Phi  )[deg.]  Ax.Ratio[      ]    
------------------------------------------------------------------------------------------------------------------------------------------------------
-180.000         -90.000            1.138e-02           1.848e-06              83.822           1.137e-02             148.193           8.702e+01     
-179.000         -90.000            1.715e-02           6.176e-03             347.658           1.098e-02             147.066           5.749e+00     
-178.000         -90.000            3.055e-02           2.048e-02             347.442           1.007e-02             143.715           5.091e+00     
-177.000         -90.000            4.194e-02           3.307e-02             347.845           8.873e-03             137.982           4.705e+00     
-176.000         -90.000            4.301e-02           3.533e-02             348.884           7.680e-03             129.755           3.880e+00     
-175.000         -90.000            3.259e-02           2.586e-02             351.214           6.734e-03             119.221           2.774e+00     
-174.000         -90.000            1.748e-02           1.131e-02             357.462           6.175e-03             107.162           1.596e+00     
-173.000         -90.000            7.724e-03           1.721e-03              29.005           6.002e-03              94.906           2.172e+00     
-172.000         -90.000            9.603e-03           3.513e-03             130.021           6.091e-03              83.767           2.469e+00     
-171.000         -90.000            2.133e-02           1.509e-02             147.534           6.246e-03              74.503           1.714e+00     
-170.000         -90.000            3.435e-02           2.807e-02             152.699           6.276e-03              67.307           2.126e+00     
-169.000         -90.000            3.928e-02           3.322e-02             155.905           6.053e-03              62.097           2.350e+00     
-168.000         -90.000            3.247e-02           2.692e-02             159.678           5.549e-03              58.757           2.264e+00     
-167.000         -90.000            1.856e-02           1.374e-02             167.420           4.827e-03              57.237           1.903e+00     
-166.000         -90.000            7.368e-03           3.358e-03             196.254           4.011e-03              57.536           2.669e+00     
-165.000         -90.000            7.224e-03           3.997e-03             280.710           3.228e-03              59.584           2.686e+00     
-164.000         -90.000            1.929e-02           1.672e-02             306.080           2.568e-03              63.045           2.965e+00     
-163.000         -90.000            3.655e-02           3.449e-02             313.197           2.058e-03              67.079           4.523e+00     
