Theta [deg.]  Phi   [deg.]  Abs(Dir.)[      ]   Abs(Theta)[      ]  Phase(Theta)[deg.]  Abs(Phi  )[      ]  Phase(Phi  )[deg.]  Ax.Ratio[      ]    
------------------------------------------------------------------------------------------------------------------------------------------------------
-180.000         -90.000            4.483e-04           1.303e-06             156.427           4.470e-04              87.326           1.984e+01     
-179.000         -90.000            4.111e-03           3.660e-03             261.656           4.512e-04              88.675           2.614e+01     
-178.000         -90.000            1.323e-02           1.277e-02             262.462           4.654e-04              92.414           3.138e+01     
-177.000         -90.000            2.300e-02           2.250e-02             263.175           4.971e-04              97.732           2.732e+01     
-176.000         -90.000            2.828e-02           2.773e-02             264.211           5.525e-04             103.414           2.192e+01     
-175.000         -90.000            2.635e-02           2.572e-02             265.979           6.313e-04             108.225           1.721e+01     
-174.000         -90.000            1.834e-02           1.762e-02             269.439           7.242e-04             111.296           1.372e+01     
-173.000         -90.000            8.655e-03           7.841e-03             277.927           8.141e-04             112.169           1.385e+01     
-172.000         -90.000            2.619e-03           1.736e-03             311.832           8.826e-04             110.644           5.677e+00     
-171.000         -90.000            3.677e-03           2.759e-03              34.380           9.183e-04             106.573           1.900e+00     
-170.000         -90.000            1.158e-02           1.065e-02              56.849           9.240e-04              99.787           5.225e+00     
-169.000         -90.000            2.248e-02           2.156e-02              63.933           9.185e-04              90.194           1.133e+01     
-168.000         -90.000            3.097e-02           3.004e-02              67.835           9.326e-04              78.057           3.295e+01     
-167.000         -90.000            3.286e-02           3.186e-02              71.215           9.988e-04              64.282           4.823e+01     
-166.000         -90.000            2.734e-02           2.620e-02              75.589           1.139e-03              50.278           1.162e+01     
-165.000         -90.000            1.745e-02           1.610e-02              83.394           1.355e-03              37.266           4.982e+00     
-164.000         -90.000            8.504e-03           6.880e-03             102.133           1.624e-03              25.773           2.154e+00     
-163.000         -90.000            5.423e-03           3.523e-03             151.989           1.900e-03              15.725           2.655e+00     
