Theta [deg.]  Phi   [deg.]  Abs(Dir.)[      ]   Abs(Theta)[      ]  Phase(Theta)[deg.]  Abs(Phi  )[      ]  Phase(Phi  )[deg.]  Ax.Ratio[      ]    
------------------------------------------------------------------------------------------------------------------------------------------------------
-180.000         -90.000            9.185e-03           1.595e-06             262.189           9.184e-03             334.635           7.959e+01     
-179.000         -90.000            1.461e-02           5.806e-03             118.459           8.808e-03             333.647           3.237e+00     
-178.000         -90.000            2.758e-02           1.967e-02             118.463           7.915e-03             330.626           3.896e+00     
-177.000         -90.000            3.915e-02           3.244e-02             118.945           6.715e-03             325.328           5.797e+00     
-176.000         -90.000            4.121e-02           3.574e-02             120.016           5.473e-03             317.424           9.747e+00     
-175.000         -90.000            3.191e-02           2.748e-02             122.304           4.423e-03             306.717           3.758e+01     
-174.000         -90.000            1.696e-02           1.325e-02             128.116           3.707e-03             293.586           9.540e+00     
-173.000         -90.000            5.964e-03           2.621e-03             152.950           3.343e-03             279.363           2.005e+00     
-172.000         -90.000            6.066e-03           2.824e-03             251.531           3.242e-03             265.925           7.939e+00     
-171.000         -90.000            1.726e-02           1.400e-02             275.090           3.257e-03             254.648           7.178e+00     
-170.000         -90.000            3.230e-02           2.906e-02             280.988           3.242e-03             246.004           5.626e+00     
-169.000         -90.000            4.134e-02           3.824e-02             283.802           3.097e-03             239.953           5.295e+00     
-168.000         -90.000            3.831e-02           3.551e-02             286.089           2.797e-03             236.399           4.834e+00     
-167.000         -90.000            2.488e-02           2.249e-02             289.490           2.384e-03             235.422           3.942e+00     
-166.000         -90.000            9.573e-03           7.629e-03             298.783           1.944e-03             237.269           2.414e+00     
-165.000         -90.000            2.523e-03           9.576e-04               6.683           1.565e-03             242.131           2.003e+00     
-164.000         -90.000            9.162e-03           7.854e-03              78.068           1.309e-03             249.583           1.932e+01     
-163.000         -90.000            2.678e-02           2.559e-02              87.731           1.183e-03             258.013           2.880e+01     
