Theta [deg.]  Phi   [deg.]  Abs(Dir.)[      ]   Abs(Theta)[      ]  Phase(Theta)[deg.]  Abs(Phi  )[      ]  Phase(Phi  )[deg.]  Ax.Ratio[      ]    
------------------------------------------------------------------------------------------------------------------------------------------------------
-180.000         -90.000            5.483e-03           1.892e-07              13.935           5.483e-03             329.299           2.423e+02     
-179.000         -90.000            9.668e-03           4.075e-03             251.145           5.593e-03             330.407           1.280e+00     
-178.000         -90.000            1.980e-02           1.386e-02             251.297           5.941e-03             333.410           1.563e+00     
-177.000         -90.000            2.992e-02           2.337e-02             251.878           6.549e-03             337.573           1.898e+00     
-176.000         -90.000            3.424e-02           2.684e-02             253.056           7.402e-03             341.998           1.905e+00     
-175.000         -90.000            3.063e-02           2.223e-02             255.421           8.400e-03             345.953           1.627e+00     
-174.000         -90.000            2.182e-02           1.247e-02             260.861           9.354e-03             349.024           1.159e+00     
-173.000         -90.000            1.372e-02           3.712e-03             278.556           1.001e-02             351.076           1.806e+00     
-172.000         -90.000            1.165e-02           1.525e-03             356.692           1.012e-02             352.143           3.735e+01     
-171.000         -90.000            1.707e-02           7.524e-03              39.148           9.541e-03             352.330           2.334e+00     
-170.000         -90.000            2.664e-02           1.836e-02              48.993           8.278e-03             351.770           2.092e+00     
-169.000         -90.000            3.423e-02           2.772e-02              53.304           6.501e-03             350.625           2.463e+00     
-168.000         -90.000            3.460e-02           3.009e-02              56.417           4.509e-03             349.142           2.872e+00     
-167.000         -90.000            2.671e-02           2.407e-02              60.175           2.638e-03             347.821           3.205e+00     
-166.000         -90.000            1.443e-02           1.325e-02              67.350           1.178e-03             348.119           3.425e+00     
-165.000         -90.000            4.460e-03           4.153e-03              89.114           3.074e-04             356.930           3.678e+00     
-164.000         -90.000            2.554e-03           2.484e-03             161.478           6.966e-05              66.291           5.998e+00     
-163.000         -90.000            1.023e-02           9.829e-03             199.151           3.971e-04             112.489           4.985e+00     
