Theta [deg.]  Phi   [deg.]  Abs(Dir.)[      ]   Abs(Theta)[      ]  Phase(Theta)[deg.]  Abs(Phi  )[      ]  Phase(Phi  )[deg.]  Ax.Ratio[      ]    
------------------------------------------------------------------------------------------------------------------------------------------------------
-180.000         -90.000            1.406e-03           6.109e-07             144.469           1.406e-03             204.826           5.520e+01     
-179.000         -90.000            5.436e-03           4.026e-03             327.340           1.410e-03             204.033           2.294e+00     
-178.000         -90.000            1.631e-02           1.489e-02             327.430           1.422e-03             201.736           4.122e+00     
-177.000         -90.000            3.026e-02           2.881e-02             327.633           1.446e-03             198.085           5.911e+00     
-176.000         -90.000            4.244e-02           4.095e-02             327.992           1.482e-03             193.312           7.527e+00     
-175.000         -90.000            4.865e-02           4.712e-02             328.599           1.532e-03             187.690           8.969e+00     
-174.000         -90.000            4.681e-02           4.521e-02             329.639           1.591e-03             181.494           1.036e+01     
-173.000         -90.000            3.763e-02           3.598e-02             331.493           1.653e-03             174.939           1.218e+01     
-172.000         -90.000            2.441e-02           2.271e-02             335.139           1.705e-03             168.171           1.734e+01     
-171.000         -90.000            1.185e-02           1.011e-02             343.799           1.736e-03             161.238           6.326e+01     
-170.000         -90.000            4.382e-03           2.647e-03              14.025           1.735e-03             154.116           2.834e+00     
-169.000         -90.000            4.689e-03           2.994e-03              89.014           1.695e-03             146.720           1.949e+00     
-168.000         -90.000            1.274e-02           1.113e-02             115.985           1.617e-03             138.924           7.576e+00     
-167.000         -90.000            2.583e-02           2.433e-02             124.243           1.507e-03             130.576           3.866e+01     
-166.000         -90.000            3.953e-02           3.816e-02             128.167           1.376e-03             121.517           4.710e+01     
-165.000         -90.000            4.919e-02           4.795e-02             130.760           1.239e-03             111.617           1.941e+01     
-164.000         -90.000            5.156e-02           5.045e-02             133.137           1.112e-03             100.823           1.280e+01     
-163.000         -90.000            4.590e-02           4.490e-02             136.094           1.008e-03              89.228           9.244e+00     
