Theta [deg.]  Phi   [deg.]  Abs(Dir.)[      ]   Abs(Theta)[      ]  Phase(Theta)[deg.]  Abs(Phi  )[      ]  Phase(Phi  )[deg.]  Ax.Ratio[      ]    
------------------------------------------------------------------------------------------------------------------------------------------------------
-180.000         -90.000            5.507e-03           3.366e-08              47.547           5.507e-03              15.868           3.162e+02     
-179.000         -90.000            8.933e-03           3.485e-03             313.467           5.448e-03              15.273           1.757e+00     
-178.000         -90.000            1.795e-02           1.267e-02             313.560           5.284e-03              13.493           2.047e+00     
-177.000         -90.000            2.921e-02           2.418e-02             313.875           5.033e-03              10.532           2.814e+00     
-176.000         -90.000            3.853e-02           3.381e-02             314.442           4.720e-03               6.410           3.594e+00     
-175.000         -90.000            4.243e-02           3.806e-02             315.391           4.374e-03               1.168           4.360e+00     
-174.000         -90.000            3.944e-02           3.542e-02             316.998           4.019e-03             354.881           5.191e+00     
-173.000         -90.000            3.062e-02           2.695e-02             319.874           3.671e-03             347.659           6.449e+00     
-172.000         -90.000            1.920e-02           1.586e-02             325.669           3.338e-03             339.645           1.083e+01     
-171.000         -90.000            9.430e-03           6.411e-03             340.305           3.019e-03             330.980           1.315e+01     
-170.000         -90.000            5.011e-03           2.308e-03              27.927           2.703e-03             321.764           1.547e+00     
-169.000         -90.000            7.775e-03           5.395e-03              83.628           2.381e-03             312.014           2.502e+00     
-168.000         -90.000            1.702e-02           1.498e-02             101.621           2.046e-03             301.607           8.885e+00     
-167.000         -90.000            2.976e-02           2.806e-02             108.626           1.703e-03             290.222           1.546e+02     
-166.000         -90.000            4.177e-02           4.041e-02             112.405           1.366e-03             277.259           2.147e+01     
-165.000         -90.000            4.905e-02           4.799e-02             115.097           1.065e-03             261.765           1.240e+01     
-164.000         -90.000            4.922e-02           4.838e-02             117.654           8.399e-04             242.556           9.308e+00     
-163.000         -90.000            4.232e-02           4.159e-02             120.840           7.326e-04             219.237           7.619e+00     
