Theta [deg.]  Phi   [deg.]  Abs(Dir.)[      ]   Abs(Theta)[      ]  Phase(Theta)[deg.]  Abs(Phi  )[      ]  Phase(Phi  )[deg.]  Ax.Ratio[      ]    
------------------------------------------------------------------------------------------------------------------------------------------------------
-180.000         -90.000            4.275e-03           1.555e-06             343.459           4.274e-03              54.878           5.530e+01     
-179.000         -90.000            9.326e-03           5.313e-03              84.739           4.013e-03              53.901           3.667e+00     
-178.000         -90.000            2.172e-02           1.835e-02              85.274           3.374e-03              50.867           4.672e+00     
-177.000         -90.000            3.437e-02           3.183e-02              85.562           2.537e-03              45.047           5.713e+00     
-176.000         -90.000            3.995e-02           3.823e-02              85.911           1.724e-03              34.942           6.174e+00     
-175.000         -90.000            3.507e-02           3.394e-02              86.532           1.132e-03              18.215           5.921e+00     
-174.000         -90.000            2.221e-02           2.134e-02              87.906           8.683e-04             354.164           4.969e+00     
-173.000         -90.000            8.437e-03           7.511e-03              92.061           9.264e-04             329.155           3.526e+00     
-172.000         -90.000            1.572e-03           3.757e-04             133.586           1.196e-03             310.543           4.415e+01     
-171.000         -90.000            5.894e-03           4.382e-03             248.696           1.512e-03             298.421           2.620e+00     
-170.000         -90.000            1.977e-02           1.806e-02             255.585           1.713e-03             290.383           6.064e+00     
-169.000         -90.000            3.645e-02           3.475e-02             257.712           1.698e-03             284.720           1.035e+01     
-168.000         -90.000            4.756e-02           4.611e-02             259.011           1.451e-03             280.523           1.579e+01     
-167.000         -90.000            4.751e-02           4.647e-02             260.410           1.042e-03             277.414           2.331e+01     
-166.000         -90.000            3.635e-02           3.576e-02             262.683           5.884e-04             275.538           3.559e+01     
-165.000         -90.000            1.972e-02           1.950e-02             267.543           2.190e-04             276.487           6.136e+01     
-164.000         -90.000            5.924e-03           5.897e-03             282.541           2.622e-05             296.022           6.460e+01     
-163.000         -90.000            1.738e-03           1.694e-03             356.634           4.371e-05              52.334           7.600e+00     
