Theta [deg.]  Phi   [deg.]  Abs(Dir.)[      ]   Abs(Theta)[      ]  Phase(Theta)[deg.]  Abs(Phi  )[      ]  Phase(Phi  )[deg.]  Ax.Ratio[      ]    
------------------------------------------------------------------------------------------------------------------------------------------------------
-180.000         -90.000            9.419e-02           1.718e-07              85.809           9.419e-02             233.402           3.162e+02     
-179.000         -90.000            9.559e-02           2.788e-03               3.430           9.280e-02             233.029           7.674e+00     
-178.000         -90.000            9.905e-02           1.032e-02               3.282           8.873e-02             231.918           4.118e+00     
-177.000         -90.000            1.027e-01           2.038e-02               3.353           8.236e-02             230.029           3.127e+00     
-176.000         -90.000            1.043e-01           3.000e-02               3.561           7.431e-02             227.295           2.844e+00     
-175.000         -90.000            1.016e-01           3.635e-02               3.938           6.527e-02             223.619           2.926e+00     
-174.000         -90.000            9.355e-02           3.754e-02               4.577           5.600e-02             218.875           3.319e+00     
-173.000         -90.000            8.043e-02           3.322e-02               5.664           4.721e-02             212.925           4.196e+00     
-172.000         -90.000            6.411e-02           2.468e-02               7.612           3.943e-02             205.641           6.486e+00     
-171.000         -90.000            4.754e-02           1.449e-02              11.513           3.305e-02             196.970           2.280e+01     
-170.000         -90.000            3.400e-02           5.760e-03              21.364           2.824e-02             187.014           1.066e+01     
-169.000         -90.000            2.627e-02           1.297e-03              61.355           2.497e-02             176.116           4.878e+00     
-168.000         -90.000            2.579e-02           2.760e-03             137.256           2.303e-02             164.829           6.842e+00     
-167.000         -90.000            3.231e-02           1.020e-02             157.009           2.211e-02             153.774           3.809e+01     
-166.000         -90.000            4.385e-02           2.201e-02             163.370           2.184e-02             143.430           5.689e+00     
-165.000         -90.000            5.719e-02           3.535e-02             166.443           2.184e-02             134.041           3.560e+00     
-164.000         -90.000            6.867e-02           4.689e-02             168.381           2.177e-02             125.632           2.810e+00     
-163.000         -90.000            7.512e-02           5.372e-02             169.958           2.140e-02             118.104           2.401e+00     
