Theta [deg.]  Phi   [deg.]  Abs(Dir.)[      ]   Abs(Theta)[      ]  Phase(Theta)[deg.]  Abs(Phi  )[      ]  Phase(Phi  )[deg.]  Ax.Ratio[      ]    
------------------------------------------------------------------------------------------------------------------------------------------------------
-180.000         -90.000            1.406e-03           7.922e-07             203.158           1.405e-03             234.270           8.154e+01     
-179.000         -90.000            6.107e-03           4.702e-03             108.481           1.405e-03             233.571           2.505e+00     
-178.000         -90.000            1.836e-02           1.696e-02             108.266           1.402e-03             231.512           4.268e+00     
-177.000         -90.000            3.332e-02           3.193e-02             108.452           1.397e-03             228.196           5.568e+00     
-176.000         -90.000            4.507e-02           4.369e-02             108.937           1.386e-03             223.770           6.221e+00     
-175.000         -90.000            4.902e-02           4.765e-02             109.836           1.366e-03             218.382           6.248e+00     
-174.000         -90.000            4.369e-02           4.235e-02             111.451           1.331e-03             212.142           5.747e+00     
-173.000         -90.000            3.129e-02           3.002e-02             114.517           1.276e-03             205.093           4.851e+00     
-172.000         -90.000            1.686e-02           1.566e-02             121.219           1.196e-03             197.162           3.749e+00     
-171.000         -90.000            6.152e-03           5.058e-03             140.954           1.094e-03             188.159           3.257e+00     
-170.000         -90.000            3.440e-03           2.461e-03             207.272           9.788e-04             177.779           4.267e+00     
-169.000         -90.000            9.788e-03           8.922e-03             249.994           8.659e-04             165.658           3.229e+00     
-168.000         -90.000            2.269e-02           2.191e-02             262.062           7.753e-04             151.551           5.701e+00     
-167.000         -90.000            3.708e-02           3.635e-02             267.398           7.268e-04             135.656           9.563e+00     
-166.000         -90.000            4.738e-02           4.665e-02             270.866           7.349e-04             118.915           1.715e+01     
-165.000         -90.000            4.970e-02           4.890e-02             274.089           8.039e-04             102.746           5.265e+01     
-164.000         -90.000            4.333e-02           4.241e-02             278.199           9.251e-04              88.268           4.009e+01     
-163.000         -90.000            3.107e-02           3.000e-02             284.867           1.077e-03              75.859           1.118e+01     
