Theta [deg.]  Phi   [deg.]  Abs(Dir.)[      ]   Abs(Theta)[      ]  Phase(Theta)[deg.]  Abs(Phi  )[      ]  Phase(Phi  )[deg.]  Ax.Ratio[      ]    
------------------------------------------------------------------------------------------------------------------------------------------------------
-180.000         -90.000            1.095e-02           5.628e-07             339.517           1.095e-02              66.008           1.397e+02     
-179.000         -90.000            1.768e-02           6.425e-03             203.194           1.126e-02              64.346           2.803e+00     
-178.000         -90.000            3.260e-02           2.045e-02             203.222           1.216e-02              59.559           3.175e+00     
-177.000         -90.000            4.406e-02           3.027e-02             203.642           1.378e-02              52.709           4.202e+00     
-176.000         -90.000            4.382e-02           2.762e-02             204.694           1.620e-02              45.064           5.778e+00     
-175.000         -90.000            3.395e-02           1.471e-02             207.544           1.925e-02              37.582           1.149e+01     
-174.000         -90.000            2.501e-02           2.549e-03             221.088           2.246e-02              30.692           1.826e+01     
-173.000         -90.000            2.701e-02           1.852e-03             352.108           2.516e-02              24.418           7.266e+00     
-172.000         -90.000            4.078e-02           1.412e-02               9.779           2.667e-02              18.577           1.367e+01     
-171.000         -90.000            5.677e-02           3.024e-02              13.457           2.653e-02              12.916           2.122e+02     
-170.000         -90.000            6.242e-02           3.775e-02              15.585           2.466e-02               7.158           1.389e+01     
-169.000         -90.000            5.221e-02           3.081e-02              18.195           2.140e-02               1.010           6.734e+00     
-168.000         -90.000            3.226e-02           1.492e-02              23.965           1.734e-02             354.136           3.767e+00     
-167.000         -90.000            1.578e-02           2.590e-03              50.037           1.319e-02             346.131           2.626e+00     
-166.000         -90.000            1.311e-02           3.576e-03             154.727           9.538e-03             336.512           7.210e+01     
-165.000         -90.000            2.406e-02           1.734e-02             175.188           6.721e-03             324.798           4.165e+00     
-164.000         -90.000            3.844e-02           3.361e-02             181.148           4.829e-03             310.839           3.647e+00     
-163.000         -90.000            4.419e-02           4.044e-02             185.360           3.745e-03             295.395           3.539e+00     
