Theta [deg.]  Phi   [deg.]  Abs(Dir.)[      ]   Abs(Theta)[      ]  Phase(Theta)[deg.]  Abs(Phi  )[      ]  Phase(Phi  )[deg.]  Ax.Ratio[      ]    
------------------------------------------------------------------------------------------------------------------------------------------------------
-180.000         -90.000            3.064e-02           8.472e-09             145.295           3.064e-02             187.953           3.162e+02     
-179.000         -90.000            3.449e-02           4.001e-03              69.182           3.049e-02             187.674           3.245e+00     
-178.000         -90.000            4.547e-02           1.540e-02              69.332           3.007e-02             186.839           1.838e+00     
-177.000         -90.000            6.189e-02           3.249e-02              69.630           2.940e-02             185.444           1.599e+00     
-176.000         -90.000            8.123e-02           5.270e-02              70.080           2.853e-02             183.485           1.691e+00     
-175.000         -90.000            1.006e-01           7.304e-02              70.708           2.751e-02             180.961           1.850e+00     
-174.000         -90.000            1.169e-01           9.053e-02              71.553           2.641e-02             177.872           1.989e+00     
-173.000         -90.000            1.280e-01           1.027e-01              72.676           2.529e-02             174.231           2.083e+00     
-172.000         -90.000            1.321e-01           1.079e-01              74.167           2.421e-02             170.061           2.128e+00     
-171.000         -90.000            1.288e-01           1.055e-01              76.159           2.324e-02             165.403           2.131e+00     
-170.000         -90.000            1.188e-01           9.634e-02              78.863           2.241e-02             160.319           2.111e+00     
-169.000         -90.000            1.037e-01           8.196e-02              82.621           2.176e-02             154.889           2.103e+00     
-168.000         -90.000            8.611e-02           6.482e-02              88.003           2.129e-02             149.208           2.188e+00     
-167.000         -90.000            6.878e-02           4.777e-02              95.990           2.100e-02             143.379           2.559e+00     
-166.000         -90.000            5.447e-02           3.359e-02             108.167           2.089e-02             137.502           3.945e+00     
-165.000         -90.000            4.547e-02           2.457e-02             126.317           2.090e-02             131.663           2.149e+01     
-164.000         -90.000            4.323e-02           2.223e-02             149.543           2.100e-02             125.932           4.787e+00     
-163.000         -90.000            4.819e-02           2.704e-02             171.750           2.115e-02             120.356           2.103e+00     
