Theta [deg.]  Phi   [deg.]  Abs(Dir.)[      ]   Abs(Theta)[      ]  Phase(Theta)[deg.]  Abs(Phi  )[      ]  Phase(Phi  )[deg.]  Ax.Ratio[      ]    
------------------------------------------------------------------------------------------------------------------------------------------------------
-180.000         -90.000            3.191e-04           4.774e-10             278.025           3.191e-04             165.790           3.162e+02     
-179.000         -90.000            2.836e-03           2.519e-03              63.070           3.170e-04             165.590           2.907e+00     
-178.000         -90.000            9.756e-03           9.445e-03              63.222           3.111e-04             165.001           5.637e+00     
-177.000         -90.000            1.934e-02           1.903e-02              63.488           3.016e-04             164.004           8.085e+00     
-176.000         -90.000            2.917e-02           2.888e-02              63.909           2.891e-04             162.572           1.011e+01     
-175.000         -90.000            3.682e-02           3.655e-02              64.548           2.745e-04             160.664           1.161e+01     
-174.000         -90.000            4.041e-02           4.015e-02              65.509           2.586e-04             158.238           1.248e+01     
-173.000         -90.000            3.913e-02           3.888e-02              66.974           2.425e-04             155.248           1.267e+01     
-172.000         -90.000            3.340e-02           3.317e-02              69.272           2.272e-04             151.659           1.219e+01     
-171.000         -90.000            2.476e-02           2.454e-02              73.090           2.137e-04             147.460           1.114e+01     
-170.000         -90.000            1.547e-02           1.527e-02              80.007           2.030e-04             142.682           9.789e+00     
-169.000         -90.000            7.937e-03           7.741e-03              94.271           1.959e-04             137.414           9.318e+00     
-168.000         -90.000            4.069e-03           3.876e-03             126.150           1.929e-04             131.807           4.772e+01     
-167.000         -90.000            4.841e-03           4.647e-03             170.144           1.944e-04             126.065           7.183e+00     
-166.000         -90.000            1.005e-02           9.846e-03             195.054           2.005e-04             120.412           7.277e+00     
-165.000         -90.000            1.837e-02           1.816e-02             206.411           2.111e-04             115.050           9.278e+00     
-164.000         -90.000            2.775e-02           2.752e-02             212.514           2.258e-04             110.133           1.131e+01     
-163.000         -90.000            3.587e-02           3.563e-02             216.458           2.439e-04             105.751           1.293e+01     
