Theta [deg.]  Phi   [deg.]  Abs(Dir.)[      ]   Abs(Theta)[      ]  Phase(Theta)[deg.]  Abs(Phi  )[      ]  Phase(Phi  )[deg.]  Ax.Ratio[      ]    
------------------------------------------------------------------------------------------------------------------------------------------------------
-180.000         -90.000            4.219e-03           9.433e-08               7.520           4.219e-03             235.090           2.865e+02     
-179.000         -90.000            8.936e-03           4.634e-03             152.629           4.302e-03             234.076           1.167e+00     
-178.000         -90.000            2.105e-02           1.650e-02             152.934           4.545e-03             231.174           1.976e+00     
-177.000         -90.000            3.520e-02           3.024e-02             153.395           4.955e-03             226.773           2.619e+00     
-176.000         -90.000            4.519e-02           3.967e-02             154.151           5.527e-03             221.358           2.975e+00     
-175.000         -90.000            4.681e-02           4.059e-02             155.421           6.228e-03             215.356           3.077e+00     
-174.000         -90.000            3.968e-02           3.269e-02             157.684           6.991e-03             209.040           3.031e+00     
-173.000         -90.000            2.739e-02           1.968e-02             162.244           7.714e-03             202.509           3.119e+00     
-172.000         -90.000            1.582e-02           7.531e-03             174.095           8.284e-03             195.714           5.244e+00     
-171.000         -90.000            1.040e-02           1.805e-03             223.124           8.594e-03             188.506           4.421e+00     
-170.000         -90.000            1.370e-02           5.110e-03             291.376           8.585e-03             180.656           1.576e+00     
-169.000         -90.000            2.422e-02           1.596e-02             308.508           8.261e-03             171.874           2.702e+00     
-168.000         -90.000            3.715e-02           2.946e-02             314.971           7.699e-03             161.818           5.274e+00     
-167.000         -90.000            4.660e-02           3.956e-02             318.917           7.039e-03             150.150           1.427e+01     
-166.000         -90.000            4.825e-02           4.179e-02             322.506           6.458e-03             136.668           2.884e+01     
-165.000         -90.000            4.140e-02           3.528e-02             327.103           6.125e-03             121.543           6.371e+00     
-164.000         -90.000            2.937e-02           2.320e-02             334.863           6.168e-03             105.524           2.890e+00     
-163.000         -90.000            1.804e-02           1.140e-02             351.646           6.637e-03              89.767           1.358e+00     
