Theta [deg.]  Phi   [deg.]  Abs(Dir.)[      ]   Abs(Theta)[      ]  Phase(Theta)[deg.]  Abs(Phi  )[      ]  Phase(Phi  )[deg.]  Ax.Ratio[      ]    
------------------------------------------------------------------------------------------------------------------------------------------------------
-180.000         -90.000            6.760e-02           5.566e-08              31.055           6.760e-02             253.815           3.162e+02     
-179.000         -90.000            6.841e-02           1.802e-03             323.656           6.661e-02             253.402           6.481e+00     
-178.000         -90.000            7.057e-02           6.828e-03             323.678           6.374e-02             252.145           3.259e+00     
-177.000         -90.000            7.337e-02           1.410e-02             323.916           5.927e-02             249.982           2.183e+00     
-176.000         -90.000            7.585e-02           2.219e-02             324.329           5.366e-02             246.807           1.643e+00     
-175.000         -90.000            7.699e-02           2.952e-02             324.947           4.747e-02             242.469           1.313e+00     
-174.000         -90.000            7.596e-02           3.467e-02             325.836           4.129e-02             236.787           1.093e+00     
-173.000         -90.000            7.234e-02           3.664e-02             327.107           3.570e-02             229.583           1.142e+00     
-172.000         -90.000            6.626e-02           3.508e-02             328.946           3.118e-02             220.768           1.389e+00     
-171.000         -90.000            5.844e-02           3.034e-02             331.687           2.810e-02             210.478           1.778e+00     
-170.000         -90.000            5.009e-02           2.346e-02             335.978           2.663e-02             199.192           2.532e+00     
-169.000         -90.000            4.271e-02           1.592e-02             343.166           2.679e-02             187.681           4.775e+00     
-168.000         -90.000            3.784e-02           9.431e-03             356.342           2.841e-02             176.731           3.162e+02     
-167.000         -90.000            3.676e-02           5.573e-03              21.563           3.119e-02             166.856           4.684e+00     
-166.000         -90.000            4.022e-02           5.518e-03              57.868           3.471e-02             158.221           2.565e+00     
-165.000         -90.000            4.831e-02           9.798e-03              85.134           3.851e-02             150.740           2.295e+00     
-164.000         -90.000            6.034e-02           1.819e-02              99.691           4.216e-02             144.220           2.743e+00     
-163.000         -90.000            7.495e-02           2.973e-02             107.786           4.522e-02             138.445           3.741e+00     
