Theta [deg.]  Phi   [deg.]  Abs(Dir.)[      ]   Abs(Theta)[      ]  Phase(Theta)[deg.]  Abs(Phi  )[      ]  Phase(Phi  )[deg.]  Ax.Ratio[      ]    
------------------------------------------------------------------------------------------------------------------------------------------------------
-180.000         -90.000            3.295e-03           1.623e-06             157.044           3.293e-03             214.362           5.353e+01     
-179.000         -90.000            8.452e-03           5.355e-03             215.572           3.097e-03             212.964           4.559e+01     
-178.000         -90.000            2.115e-02           1.853e-02             216.024           2.620e-03             208.754           2.395e+01     
-177.000         -90.000            3.489e-02           3.287e-02             216.231           2.017e-03             200.740           1.598e+01     
-176.000         -90.000            4.261e-02           4.113e-02             216.446           1.480e-03             187.242           1.110e+01     
-175.000         -90.000            4.033e-02           3.915e-02             216.797           1.180e-03             167.185           7.659e+00     
-174.000         -90.000            2.917e-02           2.795e-02             217.516           1.213e-03             144.004           5.024e+00     
-173.000         -90.000            1.477e-02           1.320e-02             219.330           1.568e-03             124.466           2.915e+00     
-172.000         -90.000            4.464e-03           2.333e-03             227.249           2.131e-03             110.816           1.618e+00     
-171.000         -90.000            3.562e-03           8.374e-04              10.838           2.724e-03             101.517           1.804e+00     
-170.000         -90.000            1.271e-02           9.547e-03              27.363           3.159e-03              94.811           2.007e+00     
-169.000         -90.000            2.757e-02           2.427e-02              30.243           3.291e-03              89.543           3.282e+00     
-168.000         -90.000            4.100e-02           3.793e-02              31.831           3.066e-03              84.980           4.530e+00     
-167.000         -90.000            4.657e-02           4.405e-02              33.451           2.527e-03              80.585           5.852e+00     
-166.000         -90.000            4.169e-02           3.989e-02              35.847           1.800e-03              75.806           7.527e+00     
-165.000         -90.000            2.878e-02           2.773e-02              40.234           1.055e-03              69.730           1.071e+01     
-164.000         -90.000            1.409e-02           1.363e-02              50.106           4.555e-04              59.851           3.337e+01     
-163.000         -90.000            4.564e-03           4.451e-03              80.104           1.134e-04              34.253           8.839e+00     
