Theta [deg.]  Phi   [deg.]  Abs(Dir.)[      ]   Abs(Theta)[      ]  Phase(Theta)[deg.]  Abs(Phi  )[      ]  Phase(Phi  )[deg.]  Ax.Ratio[      ]    
------------------------------------------------------------------------------------------------------------------------------------------------------
-180.000         -90.000            1.195e-02           1.742e-07             308.121           1.195e-02             121.378           3.162e+02     
-179.000         -90.000            1.628e-02           4.756e-03             287.433           1.152e-02             120.355           9.731e+00     
-178.000         -90.000            2.724e-02           1.688e-02             287.602           1.036e-02             117.409           1.201e+01     
-177.000         -90.000            3.989e-02           3.116e-02             288.016           8.727e-03             112.164           3.341e+01     
-176.000         -90.000            4.845e-02           4.148e-02             288.747           6.976e-03             103.963           3.412e+01     
-175.000         -90.000            4.890e-02           4.342e-02             289.996           5.479e-03              91.977           1.015e+01     
-174.000         -90.000            4.079e-02           3.625e-02             292.212           4.539e-03              75.882           5.174e+00     
-173.000         -90.000            2.748e-02           2.316e-02             296.581           4.322e-03              57.196           2.840e+00     
-172.000         -90.000            1.482e-02           9.996e-03             307.265           4.829e-03              39.247           1.441e+00     
-171.000         -90.000            8.604e-03           2.703e-03             345.918           5.901e-03              24.432           3.141e+00     
-170.000         -90.000            1.209e-02           4.823e-03              55.894           7.263e-03              12.960           2.616e+00     
-169.000         -90.000            2.454e-02           1.596e-02              77.604           8.589e-03               4.015           1.534e+00     
-168.000         -90.000            4.146e-02           3.189e-02              84.955           9.571e-03             356.755           1.827e+00     
-167.000         -90.000            5.630e-02           4.632e-02              88.639           9.981e-03             350.556           2.188e+00     
-166.000         -90.000            6.316e-02           5.345e-02              91.140           9.713e-03             344.983           2.483e+00     
-165.000         -90.000            5.914e-02           5.035e-02              93.483           8.792e-03             339.717           2.701e+00     
-164.000         -90.000            4.555e-02           3.819e-02              96.550           7.361e-03             334.483           2.856e+00     
-163.000         -90.000            2.748e-02           2.184e-02             102.054           5.641e-03             328.972           3.063e+00     
