Theta [deg.]  Phi   [deg.]  Abs(Dir.)[      ]   Abs(Theta)[      ]  Phase(Theta)[deg.]  Abs(Phi  )[      ]  Phase(Phi  )[deg.]  Ax.Ratio[      ]    
------------------------------------------------------------------------------------------------------------------------------------------------------
-180.000         -90.000            4.807e-03           3.076e-06             235.906           4.804e-03              12.270           5.728e+01     
-179.000         -90.000            1.447e-02           9.177e-03             125.406           5.290e-03               4.692           1.885e+00     
-178.000         -90.000            3.412e-02           2.670e-02             124.429           7.411e-03             347.517           3.242e+00     
-177.000         -90.000            4.606e-02           3.310e-02             123.290           1.296e-02             331.098           4.547e+00     
-176.000         -90.000            4.411e-02           2.122e-02             121.194           2.289e-02             319.849           6.093e+00     
-175.000         -90.000            4.019e-02           4.301e-03             114.093           3.589e-02             312.545           1.012e+01     
-174.000         -90.000            4.999e-02           1.534e-03             322.430           4.846e-02             307.458           2.240e+01     
-173.000         -90.000            7.339e-02           1.701e-02             307.986           5.639e-02             303.506           3.031e+01     
-172.000         -90.000            9.190e-02           3.502e-02             304.541           5.688e-02             300.040           2.620e+01     
-171.000         -90.000            8.670e-02           3.683e-02             301.842           4.987e-02             296.573           2.198e+01     
-170.000         -90.000            5.855e-02           2.061e-02             298.156           3.794e-02             292.553           2.140e+01     
-169.000         -90.000            2.820e-02           3.273e-03             286.114           2.493e-02             287.067           1.876e+02     
-168.000         -90.000            1.675e-02           2.543e-03             141.489           1.421e-02             278.281           3.808e+00     
-167.000         -90.000            2.613e-02           1.859e-02             127.831           7.536e-03             262.746           2.754e+00     
-166.000         -90.000            3.936e-02           3.445e-02             125.085           4.915e-03             238.240           2.951e+00     
-165.000         -90.000            3.927e-02           3.398e-02             125.011           5.290e-03             214.317           2.535e+00     
-164.000         -90.000            2.566e-02           1.827e-02             129.038           7.386e-03             201.051           1.751e+00     
-163.000         -90.000            1.380e-02           3.610e-03             153.490           1.019e-02             196.015           3.037e+00     
