Theta [deg.]  Phi   [deg.]  Abs(Dir.)[      ]   Abs(Theta)[      ]  Phase(Theta)[deg.]  Abs(Phi  )[      ]  Phase(Phi  )[deg.]  Ax.Ratio[      ]    
------------------------------------------------------------------------------------------------------------------------------------------------------
-180.000         -90.000            3.007e-03           4.324e-06             143.495           3.002e-03             284.391           4.181e+01     
-179.000         -90.000            1.037e-02           6.975e-03              53.972           3.395e-03             273.697           3.001e+00     
-178.000         -90.000            2.521e-02           1.968e-02              52.750           5.528e-03             251.400           7.423e+00     
-177.000         -90.000            3.476e-02           2.308e-02              51.465           1.167e-02             233.545           5.834e+01     
-176.000         -90.000            3.599e-02           1.303e-02              49.054           2.296e-02             222.937           1.948e+01     
-175.000         -90.000            3.919e-02           1.496e-03              37.942           3.769e-02             216.399           1.939e+02     
-174.000         -90.000            5.458e-02           3.058e-03             242.146           5.152e-02             211.783           8.484e+00     
-173.000         -90.000            7.739e-02           1.789e-02             234.414           5.950e-02             208.013           5.140e+00     
-172.000         -90.000            8.947e-02           3.078e-02             231.201           5.869e-02             204.486           4.458e+00     
-171.000         -90.000            7.741e-02           2.780e-02             227.797           4.961e-02             200.728           4.351e+00     
-170.000         -90.000            4.784e-02           1.205e-02             221.243           3.579e-02             196.122           5.235e+00     
-169.000         -90.000            2.270e-02           8.753e-04             175.935           2.183e-02             189.496           2.211e+01     
-168.000         -90.000            1.852e-02           7.208e-03              68.074           1.132e-02             178.249           1.533e+00     
-167.000         -90.000            3.113e-02           2.547e-02              58.817           5.667e-03             157.479           2.158e+00     
-166.000         -90.000            4.159e-02           3.731e-02              56.282           4.283e-03             127.713           3.154e+00     
-165.000         -90.000            3.653e-02           3.091e-02              56.575           5.611e-03             105.855           3.362e+00     
-164.000         -90.000            2.129e-02           1.310e-02              62.235           8.192e-03              97.059           3.296e+00     
-163.000         -90.000            1.273e-02           1.635e-03             106.231           1.110e-02              95.516           1.602e+01     
