Theta [deg.]  Phi   [deg.]  Abs(Dir.)[      ]   Abs(Theta)[      ]  Phase(Theta)[deg.]  Abs(Phi  )[      ]  Phase(Phi  )[deg.]  Ax.Ratio[      ]    
------------------------------------------------------------------------------------------------------------------------------------------------------
-180.000         -90.000            1.685e-01           8.714e-07             137.926           1.685e-01             259.982           3.162e+02     
-179.000         -90.000            1.699e-01           2.749e-03             153.670           1.671e-01             259.924           8.133e+00     
-178.000         -90.000            1.736e-01           1.047e-02             153.913           1.631e-01             259.737           4.122e+00     
-177.000         -90.000            1.789e-01           2.223e-02             154.119           1.566e-01             259.419           2.783e+00     
-176.000         -90.000            1.845e-01           3.659e-02             154.372           1.479e-01             258.963           2.120e+00     
-175.000         -90.000            1.891e-01           5.182e-02             154.701           1.373e-01             258.363           1.729e+00     
-174.000         -90.000            1.913e-01           6.608e-02             155.133           1.253e-01             257.605           1.477e+00     
-173.000         -90.000            1.899e-01           7.771e-02             155.698           1.122e-01             256.674           1.306e+00     
-172.000         -90.000            1.840e-01           8.537e-02             156.438           9.860e-02             255.547           1.192e+00     
-171.000         -90.000            1.731e-01           8.823e-02             157.410           8.492e-02             254.192           1.128e+00     
-170.000         -90.000            1.577e-01           8.607e-02             158.698           7.160e-02             252.566           1.121e+00     
-169.000         -90.000            1.383e-01           7.929e-02             160.429           5.902e-02             250.608           1.159e+00     
-168.000         -90.000            1.163e-01           6.882e-02             162.796           4.749e-02             248.230           1.224e+00     
-167.000         -90.000            9.329e-02           5.604e-02             166.118           3.725e-02             245.311           1.323e+00     
-166.000         -90.000            7.102e-02           4.256e-02             170.936           2.846e-02             241.673           1.491e+00     
-165.000         -90.000            5.122e-02           3.004e-02             178.214           2.118e-02             237.066           1.825e+00     
-164.000         -90.000            3.539e-02           1.997e-02             189.651           1.542e-02             231.138           2.670e+00     
-163.000         -90.000            2.459e-02           1.350e-02             207.618           1.109e-02             223.445           7.230e+00     
