Theta [deg.]  Phi   [deg.]  Abs(Dir.)[      ]   Abs(Theta)[      ]  Phase(Theta)[deg.]  Abs(Phi  )[      ]  Phase(Phi  )[deg.]  Ax.Ratio[      ]    
------------------------------------------------------------------------------------------------------------------------------------------------------
-180.000         -90.000            1.455e-02           6.350e-06             178.829           1.455e-02             183.861           3.162e+02     
-179.000         -90.000            2.156e-02           6.827e-03             326.446           1.473e-02             180.840           3.522e+00     
-178.000         -90.000            3.700e-02           2.127e-02             326.987           1.573e-02             173.697           4.266e+00     
-177.000         -90.000            4.737e-02           2.933e-02             327.367           1.804e-02             164.208           6.964e+00     
-176.000         -90.000            4.510e-02           2.319e-02             328.095           2.191e-02             154.492           1.790e+01     
-175.000         -90.000            3.580e-02           8.808e-03             330.524           2.699e-02             145.923           2.891e+01     
-174.000         -90.000            3.247e-02           2.019e-04              10.164           3.227e-02             138.850           1.624e+01     
-173.000         -90.000            4.242e-02           6.067e-03             136.503           3.635e-02             133.046           4.735e+01     
-172.000         -90.000            5.944e-02           2.143e-02             139.998           3.802e-02             128.113           1.001e+01     
-171.000         -90.000            6.892e-02           3.225e-02             140.984           3.667e-02             123.655           6.577e+00     
-170.000         -90.000            6.115e-02           2.859e-02             141.794           3.256e-02             119.287           5.037e+00     
-169.000         -90.000            4.047e-02           1.381e-02             143.817           2.666e-02             114.585           4.073e+00     
-168.000         -90.000            2.173e-02           1.502e-03             157.188           2.023e-02             109.007           5.093e+00     
-167.000         -90.000            1.741e-02           2.987e-03             303.210           1.443e-02             101.804           7.128e+00     
-166.000         -90.000            2.716e-02           1.716e-02             311.666           1.000e-02              92.049           2.908e+00     
-165.000         -90.000            3.891e-02           3.170e-02             314.139           7.207e-03              79.084           2.781e+00     
-164.000         -90.000            4.013e-02           3.422e-02             316.754           5.906e-03              63.705           2.560e+00     
-163.000         -90.000            2.887e-02           2.312e-02             322.147           5.750e-03              48.602           2.011e+00     
