Theta [deg.]  Phi   [deg.]  Abs(Dir.)[      ]   Abs(Theta)[      ]  Phase(Theta)[deg.]  Abs(Phi  )[      ]  Phase(Phi  )[deg.]  Ax.Ratio[      ]    
------------------------------------------------------------------------------------------------------------------------------------------------------
-180.000         -90.000            3.930e-02           1.450e-08             101.839           3.930e-02             163.892           3.162e+02     
-179.000         -90.000            4.307e-02           4.167e-03              84.943           3.891e-02             163.372           3.134e+00     
-178.000         -90.000            5.314e-02           1.536e-02              85.072           3.778e-02             161.809           1.666e+00     
-177.000         -90.000            6.620e-02           3.016e-02              85.333           3.604e-02             159.179           1.349e+00     
-176.000         -90.000            7.795e-02           4.406e-02              85.757           3.390e-02             155.454           1.471e+00     
-175.000         -90.000            8.443e-02           5.284e-02              86.414           3.159e-02             150.613           1.711e+00     
-174.000         -90.000            8.327e-02           5.391e-02              87.434           2.937e-02             144.672           1.985e+00     
-173.000         -90.000            7.447e-02           4.704e-02              89.064           2.744e-02             137.714           2.333e+00     
-172.000         -90.000            6.039e-02           3.443e-02              91.840           2.596e-02             129.909           2.935e+00     
-171.000         -90.000            4.501e-02           2.000e-02              97.151           2.501e-02             121.521           4.663e+00     
-170.000         -90.000            3.274e-02           8.180e-03             109.788           2.456e-02             112.871           4.293e+01     
-169.000         -90.000            2.704e-02           2.513e-03             151.284           2.452e-02             104.266           4.485e+00     
-168.000         -90.000            2.934e-02           4.627e-03             213.994           2.472e-02              95.943           2.745e+00     
-167.000         -90.000            3.869e-02           1.376e-02             235.414           2.493e-02              88.031           3.598e+00     
-166.000         -90.000            5.197e-02           2.703e-02             243.583           2.494e-02              80.557           6.707e+00     
-165.000         -90.000            6.492e-02           4.036e-02             248.137           2.456e-02              73.473           2.213e+01     
-164.000         -90.000            7.340e-02           4.975e-02             251.559           2.365e-02              66.678           2.511e+01     
-163.000         -90.000            7.464e-02           5.247e-02             254.896           2.216e-02              60.043           8.419e+00     
