Theta [deg.]  Phi   [deg.]  Abs(Dir.)[      ]   Abs(Theta)[      ]  Phase(Theta)[deg.]  Abs(Phi  )[      ]  Phase(Phi  )[deg.]  Ax.Ratio[      ]    
------------------------------------------------------------------------------------------------------------------------------------------------------
-180.000         -90.000            3.673e-03           8.985e-09             296.906           3.673e-03             282.209           3.162e+02     
-179.000         -90.000            8.027e-03           4.339e-03             225.823           3.688e-03             281.375           1.910e+00     
-178.000         -90.000            2.030e-02           1.656e-02             225.888           3.739e-03             278.889           2.883e+00     
-177.000         -90.000            3.826e-02           3.441e-02             226.043           3.849e-03             274.879           4.177e+00     
-176.000         -90.000            5.870e-02           5.465e-02             226.291           4.050e-03             269.580           5.575e+00     
-175.000         -90.000            7.796e-02           7.358e-02             226.654           4.380e-03             263.335           7.129e+00     
-174.000         -90.000            9.267e-02           8.779e-02             227.171           4.879e-03             256.562           9.013e+00     
-173.000         -90.000            1.003e-01           9.475e-02             227.905           5.583e-03             249.669           1.168e+01     
-172.000         -90.000            9.980e-02           9.329e-02             228.954           6.515e-03             242.979           1.664e+01     
-171.000         -90.000            9.146e-02           8.378e-02             230.486           7.686e-03             236.692           3.331e+01     
-170.000         -90.000            7.716e-02           6.807e-02             232.799           9.084e-03             230.882           9.276e+01     
-169.000         -90.000            5.982e-02           4.914e-02             236.496           1.068e-02             225.547           1.368e+01     
-168.000         -90.000            4.295e-02           3.054e-02             242.932           1.242e-02             220.634           5.637e+00     
-167.000         -90.000            2.996e-02           1.574e-02             255.656           1.423e-02             216.069           2.783e+00     
-166.000         -90.000            2.354e-02           7.514e-03             283.894           1.603e-02             211.776           1.647e+00     
-165.000         -90.000            2.521e-02           7.478e-03             328.606           1.773e-02             207.682           2.069e+00     
-164.000         -90.000            3.502e-02           1.578e-02             357.381           1.924e-02             203.721           4.297e+00     
-163.000         -90.000            5.160e-02           3.113e-02              10.577           2.046e-02             199.830           1.263e+01     
