Theta [deg.]  Phi   [deg.]  Abs(Dir.)[      ]   Abs(Theta)[      ]  Phase(Theta)[deg.]  Abs(Phi  )[      ]  Phase(Phi  )[deg.]  Ax.Ratio[      ]    
------------------------------------------------------------------------------------------------------------------------------------------------------
-180.000         -90.000            7.800e-02           2.243e-08             335.281           7.800e-02             238.452           3.162e+02     
-179.000         -90.000            7.899e-02           1.387e-03             171.707           7.761e-02             238.367           8.169e+00     
-178.000         -90.000            8.184e-02           5.396e-03             171.668           7.644e-02             238.110           4.155e+00     
-177.000         -90.000            8.605e-02           1.152e-02             171.626           7.453e-02             237.678           2.865e+00     
-176.000         -90.000            9.091e-02           1.897e-02             171.580           7.194e-02             237.068           2.263e+00     
-175.000         -90.000            9.556e-02           2.682e-02             171.538           6.873e-02             236.273           1.947e+00     
-174.000         -90.000            9.909e-02           3.409e-02             171.512           6.500e-02             235.285           1.787e+00     
-173.000         -90.000            1.007e-01           3.986e-02             171.520           6.085e-02             234.095           1.724e+00     
-172.000         -90.000            9.984e-02           4.345e-02             171.585           5.640e-02             232.688           1.724e+00     
-171.000         -90.000            9.616e-02           4.442e-02             171.746           5.174e-02             231.050           1.767e+00     
-170.000         -90.000            8.970e-02           4.269e-02             172.052           4.700e-02             229.162           1.842e+00     
-169.000         -90.000            8.081e-02           3.852e-02             172.589           4.229e-02             226.999           1.949e+00     
-168.000         -90.000            7.016e-02           3.245e-02             173.489           3.770e-02             224.536           2.104e+00     
-167.000         -90.000            5.858e-02           2.525e-02             174.988           3.333e-02             221.744           2.346e+00     
-166.000         -90.000            4.706e-02           1.782e-02             177.537           2.924e-02             218.588           2.780e+00     
-165.000         -90.000            3.655e-02           1.104e-02             182.117           2.550e-02             215.035           3.740e+00     
-164.000         -90.000            2.788e-02           5.730e-03             191.243           2.215e-02             211.051           7.163e+00     
-163.000         -90.000            2.168e-02           2.476e-03             212.317           1.921e-02             206.610           3.159e+01     
