Theta [deg.]  Phi   [deg.]  Abs(Dir.)[      ]   Abs(Theta)[      ]  Phase(Theta)[deg.]  Abs(Phi  )[      ]  Phase(Phi  )[deg.]  Ax.Ratio[      ]    
------------------------------------------------------------------------------------------------------------------------------------------------------
-180.000         -90.000            3.641e-03           4.573e-08             260.982           3.641e-03              40.995           3.162e+02     
-179.000         -90.000            7.996e-03           4.272e-03             228.969           3.724e-03              39.591           1.222e+01     
-178.000         -90.000            1.905e-02           1.506e-02             229.096           3.990e-03              35.660           1.048e+01     
-177.000         -90.000            3.184e-02           2.736e-02             229.426           4.479e-03              29.910           8.492e+00     
-176.000         -90.000            4.069e-02           3.547e-02             230.030           5.223e-03              23.232           6.477e+00     
-175.000         -90.000            4.183e-02           3.561e-02             231.107           6.221e-03              16.381           4.722e+00     
-174.000         -90.000            3.515e-02           2.774e-02             233.131           7.411e-03               9.792           3.266e+00     
-173.000         -90.000            2.425e-02           1.559e-02             237.511           8.663e-03               3.586           2.108e+00     
-172.000         -90.000            1.477e-02           4.970e-03             250.642           9.804e-03             357.688           1.581e+00     
-171.000         -90.000            1.180e-02           1.149e-03             320.874           1.065e-02             351.925           6.382e+00     
-170.000         -90.000            1.747e-02           6.428e-03              18.139           1.104e-02             346.086           3.632e+00     
-169.000         -90.000            2.996e-02           1.905e-02              29.303           1.091e-02             339.939           2.305e+00     
-168.000         -90.000            4.417e-02           3.391e-02              33.660           1.027e-02             333.232           2.285e+00     
-167.000         -90.000            5.399e-02           4.478e-02              36.321           9.217e-03             325.678           2.400e+00     
-166.000         -90.000            5.498e-02           4.704e-02              38.714           7.935e-03             316.952           2.470e+00     
-165.000         -90.000            4.635e-02           3.973e-02              41.766           6.616e-03             306.702           2.464e+00     
-164.000         -90.000            3.145e-02           2.602e-02              46.945           5.435e-03             294.617           2.451e+00     
-163.000         -90.000            1.645e-02           1.193e-02              58.578           4.517e-03             280.599           3.016e+00     
