Theta [deg.]  Phi   [deg.]  Abs(Dir.)[      ]   Abs(Theta)[      ]  Phase(Theta)[deg.]  Abs(Phi  )[      ]  Phase(Phi  )[deg.]  Ax.Ratio[      ]    
------------------------------------------------------------------------------------------------------------------------------------------------------
-180.000         -90.000            2.288e-02           1.724e-08             278.722           2.288e-02              84.492           3.162e+02     
-179.000         -90.000            2.817e-02           5.488e-03              50.439           2.268e-02              84.336           4.294e+00     
-178.000         -90.000            4.324e-02           2.113e-02              50.549           2.210e-02              83.871           3.342e+00     
-177.000         -90.000            6.568e-02           4.451e-02              50.672           2.117e-02              83.084           3.723e+00     
-176.000         -90.000            9.194e-02           7.201e-02              50.844           1.992e-02              81.955           4.474e+00     
-175.000         -90.000            1.178e-01           9.942e-02              51.090           1.842e-02              80.453           5.431e+00     
-174.000         -90.000            1.393e-01           1.225e-01              51.439           1.674e-02              78.535           6.599e+00     
-173.000         -90.000            1.529e-01           1.379e-01              51.930           1.496e-02              76.146           8.082e+00     
-172.000         -90.000            1.564e-01           1.432e-01              52.628           1.314e-02              73.211           1.015e+01     
-171.000         -90.000            1.493e-01           1.379e-01              53.626           1.137e-02              69.639           1.359e+01     
-170.000         -90.000            1.325e-01           1.228e-01              55.080           9.714e-03              65.319           2.154e+01     
-169.000         -90.000            1.087e-01           1.005e-01              57.264           8.228e-03              60.135           7.549e+01     
-168.000         -90.000            8.147e-02           7.452e-02              60.690           6.956e-03              53.973           3.056e+01     
-167.000         -90.000            5.487e-02           4.894e-02              66.428           5.926e-03              46.769           9.471e+00     
-166.000         -90.000            3.295e-02           2.780e-02              76.986           5.151e-03              38.568           4.193e+00     
-165.000         -90.000            1.901e-02           1.438e-02              98.296           4.629e-03              29.588           2.001e+00     
-164.000         -90.000            1.517e-02           1.082e-02             135.370           4.342e-03              20.233           1.924e+00     
-163.000         -90.000            2.204e-02           1.778e-02             168.188           4.262e-03              11.022           6.367e+00     
