Theta [deg.]  Phi   [deg.]  Abs(Dir.)[      ]   Abs(Theta)[      ]  Phase(Theta)[deg.]  Abs(Phi  )[      ]  Phase(Phi  )[deg.]  Ax.Ratio[      ]    
------------------------------------------------------------------------------------------------------------------------------------------------------
-180.000         -90.000            2.448e-03           1.513e-09              98.834           2.448e-03             296.746           3.162e+02     
-179.000         -90.000            6.037e-03           3.593e-03              62.069           2.444e-03             296.643           2.000e+00     
-178.000         -90.000            1.605e-02           1.362e-02              62.204           2.434e-03             296.335           3.120e+00     
-177.000         -90.000            3.040e-02           2.799e-02              62.436           2.416e-03             295.821           4.378e+00     
-176.000         -90.000            4.611e-02           4.372e-02              62.793           2.389e-03             295.099           5.521e+00     
-175.000         -90.000            5.991e-02           5.756e-02              63.319           2.350e-03             294.164           6.488e+00     
-174.000         -90.000            6.899e-02           6.669e-02              64.079           2.299e-03             293.011           7.251e+00     
-173.000         -90.000            7.150e-02           6.926e-02              65.181           2.234e-03             291.628           7.803e+00     
-172.000         -90.000            6.702e-02           6.487e-02              66.808           2.153e-03             289.999           8.164e+00     
-171.000         -90.000            5.660e-02           5.455e-02              69.284           2.055e-03             288.101           8.410e+00     
-170.000         -90.000            4.253e-02           4.059e-02              73.260           1.942e-03             285.899           8.768e+00     
-169.000         -90.000            2.786e-02           2.605e-02              80.166           1.815e-03             283.349           1.020e+01     
-168.000         -90.000            1.580e-02           1.413e-02              93.558           1.676e-03             280.398           2.723e+01     
-167.000         -90.000            9.023e-03           7.491e-03             121.408           1.532e-03             276.975           6.281e+00     
-166.000         -90.000            9.120e-03           7.735e-03             162.129           1.385e-03             273.000           2.597e+00     
-165.000         -90.000            1.630e-02           1.506e-02             189.279           1.244e-03             268.383           3.555e+00     
-164.000         -90.000            2.936e-02           2.825e-02             202.521           1.112e-03             263.038           5.846e+00     
-163.000         -90.000            4.591e-02           4.491e-02             209.673           9.980e-04             256.903           9.233e+00     
