Theta [deg.]  Phi   [deg.]  Abs(Dir.)[      ]   Abs(Theta)[      ]  Phase(Theta)[deg.]  Abs(Phi  )[      ]  Phase(Phi  )[deg.]  Ax.Ratio[      ]    
------------------------------------------------------------------------------------------------------------------------------------------------------
-180.000         -90.000            3.809e-03           3.538e-08             248.368           3.809e-03             173.970           3.162e+02     
-179.000         -90.000            7.955e-03           4.082e-03              59.111           3.873e-03             174.387           1.579e+00     
-178.000         -90.000            1.978e-02           1.572e-02              59.270           4.060e-03             175.597           2.334e+00     
-177.000         -90.000            3.743e-02           3.305e-02              59.496           4.381e-03             177.448           3.210e+00     
-176.000         -90.000            5.817e-02           5.332e-02              59.823           4.850e-03             179.725           3.918e+00     
-175.000         -90.000            7.881e-02           7.333e-02              60.281           5.482e-03             182.199           4.404e+00     
-174.000         -90.000            9.622e-02           8.993e-02              60.907           6.289e-03             184.661           4.651e+00     
-173.000         -90.000            1.078e-01           1.006e-01              61.760           7.272e-03             186.952           4.665e+00     
-172.000         -90.000            1.121e-01           1.037e-01              62.925           8.424e-03             188.964           4.467e+00     
-171.000         -90.000            1.086e-01           9.890e-02              64.539           9.719e-03             190.639           4.092e+00     
-170.000         -90.000            9.830e-02           8.718e-02              66.824           1.112e-02             191.954           3.581e+00     
-169.000         -90.000            8.313e-02           7.057e-02              70.170           1.256e-02             192.902           2.984e+00     
-168.000         -90.000            6.587e-02           5.189e-02              75.304           1.398e-02             193.490           2.349e+00     
-167.000         -90.000            4.959e-02           3.430e-02              83.685           1.529e-02             193.726           1.725e+00     
-166.000         -90.000            3.719e-02           2.077e-02              98.286           1.642e-02             193.616           1.162e+00     
-165.000         -90.000            3.091e-02           1.361e-02             123.299           1.730e-02             193.160           1.461e+00     
-164.000         -90.000            3.201e-02           1.416e-02             154.906           1.785e-02             192.348           2.976e+00     
-163.000         -90.000            4.060e-02           2.254e-02             178.822           1.805e-02             191.163           9.307e+00     
