Theta [deg.]  Phi   [deg.]  Abs(Dir.)[      ]   Abs(Theta)[      ]  Phase(Theta)[deg.]  Abs(Phi  )[      ]  Phase(Phi  )[deg.]  Ax.Ratio[      ]    
------------------------------------------------------------------------------------------------------------------------------------------------------
-180.000         -90.000            4.298e-05           1.233e-07             170.269           4.286e-05             235.471           2.055e+01     
-179.000         -90.000            2.332e-03           2.299e-03             330.851           3.339e-05             226.053           8.591e+00     
-178.000         -90.000            8.875e-03           8.851e-03             331.095           2.423e-05             185.209           3.415e+01     
-177.000         -90.000            1.859e-02           1.851e-02             331.383           7.149e-05             138.169           7.066e+01     
-176.000         -90.000            2.987e-02           2.961e-02             331.786           2.589e-04             120.096           2.049e+01     
-175.000         -90.000            4.090e-02           4.022e-02             332.343           6.840e-04             112.540           1.210e+01     
-174.000         -90.000            4.995e-02           4.851e-02             333.106           1.442e-03             108.354           8.364e+00     
-173.000         -90.000            5.570e-02           5.309e-02             334.151           2.609e-03             105.478           6.140e+00     
-172.000         -90.000            5.745e-02           5.322e-02             335.593           4.228e-03             103.164           4.615e+00     
-171.000         -90.000            5.526e-02           4.897e-02             337.624           6.298e-03             101.085           3.485e+00     
-170.000         -90.000            4.993e-02           4.116e-02             340.577           8.770e-03              99.078           2.607e+00     
-169.000         -90.000            4.283e-02           3.129e-02             345.063           1.155e-02              97.048           1.906e+00     
-168.000         -90.000            3.568e-02           2.119e-02             352.333           1.449e-02              94.939           1.340e+00     
-167.000         -90.000            3.021e-02           1.277e-02               5.077           1.745e-02              92.711           1.175e+00     
-166.000         -90.000            2.790e-02           7.660e-03              28.255           2.024e-02              90.332           2.047e+00     
-165.000         -90.000            2.964e-02           6.947e-03              61.873           2.269e-02              87.776           5.212e+00     
-164.000         -90.000            3.564e-02           1.097e-02              89.695           2.467e-02              85.017           2.653e+01     
-163.000         -90.000            4.536e-02           1.930e-02             105.763           2.606e-02              82.028           4.817e+00     
