Theta [deg.]  Phi   [deg.]  Abs(Dir.)[      ]   Abs(Theta)[      ]  Phase(Theta)[deg.]  Abs(Phi  )[      ]  Phase(Phi  )[deg.]  Ax.Ratio[      ]    
------------------------------------------------------------------------------------------------------------------------------------------------------
-180.000         -90.000            2.050e-02           4.948e-07             256.666           2.050e-02              76.396           3.162e+02     
-179.000         -90.000            2.675e-02           7.117e-03             138.396           1.963e-02              75.349           2.051e+00     
-178.000         -90.000            4.087e-02           2.350e-02             138.227           1.737e-02              72.300           1.584e+00     
-177.000         -90.000            5.178e-02           3.744e-02             138.280           1.434e-02              66.904           1.804e+00     
-176.000         -90.000            5.024e-02           3.895e-02             138.583           1.128e-02              58.663           1.910e+00     
-175.000         -90.000            3.572e-02           2.686e-02             139.490           8.852e-03              47.251           1.745e+00     
-174.000         -90.000            1.721e-02           9.832e-03             142.663           7.375e-03              33.260           1.455e+00     
-173.000         -90.000            7.201e-03           3.731e-04             181.990           6.828e-03              18.745           1.559e+01     
-172.000         -90.000            1.304e-02           6.134e-03             303.382           6.903e-03               6.194           1.644e+00     
-171.000         -90.000            3.163e-02           2.445e-02             308.457           7.182e-03             356.892           2.838e+00     
-170.000         -90.000            5.125e-02           4.394e-02             309.721           7.311e-03             350.865           4.102e+00     
-169.000         -90.000            5.914e-02           5.204e-02             310.278           7.104e-03             347.682           4.858e+00     
-168.000         -90.000            5.001e-02           4.344e-02             310.903           6.568e-03             346.923           4.827e+00     
-167.000         -90.000            2.950e-02           2.367e-02             312.495           5.837e-03             348.244           4.050e+00     
-166.000         -90.000            1.058e-02           5.505e-03             319.318           5.077e-03             351.227           3.501e+00     
-165.000         -90.000            5.147e-03           7.404e-04              85.826           4.406e-03             355.222           2.440e+00     
-164.000         -90.000            1.646e-02           1.260e-02             116.551           3.859e-03             359.288           2.201e+00     
-163.000         -90.000            3.719e-02           3.380e-02             120.298           3.393e-03               2.372           3.657e+00     
