Theta [deg.]  Phi   [deg.]  Abs(Dir.)[      ]   Abs(Theta)[      ]  Phase(Theta)[deg.]  Abs(Phi  )[      ]  Phase(Phi  )[deg.]  Ax.Ratio[      ]    
------------------------------------------------------------------------------------------------------------------------------------------------------
-180.000         -90.000            7.959e-03           1.162e-07               9.851           7.958e-03               1.477           3.162e+02     
-179.000         -90.000            1.246e-02           4.362e-03             148.646           8.102e-03               1.414           3.596e+00     
-178.000         -90.000            2.360e-02           1.509e-02             148.887           8.509e-03               1.240           3.615e+00     
-177.000         -90.000            3.535e-02           2.623e-02             149.232           9.125e-03               0.945           4.104e+00     
-176.000         -90.000            4.143e-02           3.157e-02             149.844           9.854e-03               0.520           4.375e+00     
-175.000         -90.000            3.868e-02           2.812e-02             151.018           1.056e-02             359.957           4.413e+00     
-174.000         -90.000            2.884e-02           1.777e-02             153.572           1.106e-02             359.253           4.524e+00     
-173.000         -90.000            1.758e-02           6.387e-03             161.001           1.119e-02             358.408           6.803e+00     
-172.000         -90.000            1.145e-02           6.612e-04             214.201           1.079e-02             357.436           7.020e+00     
-171.000         -90.000            1.431e-02           4.520e-03             302.628           9.789e-03             356.362           2.217e+00     
-170.000         -90.000            2.518e-02           1.695e-02             313.463           8.230e-03             355.243           2.849e+00     
-169.000         -90.000            3.869e-02           3.242e-02             317.195           6.270e-03             354.198           4.275e+00     
-168.000         -90.000            4.783e-02           4.366e-02             319.582           4.172e-03             353.493           6.191e+00     
-167.000         -90.000            4.766e-02           4.540e-02             322.044           2.254e-03             353.875           8.818e+00     
-166.000         -90.000            3.785e-02           3.702e-02             325.688           8.267e-04             358.169           1.266e+01     
-165.000         -90.000            2.295e-02           2.283e-02             332.602           1.245e-04              28.512           1.638e+01     
-164.000         -90.000            1.015e-02           9.894e-03             349.312           2.592e-04             121.631           8.457e+00     
-163.000         -90.000            5.696e-03           4.499e-03              35.222           1.197e-03             135.956           1.998e+00     
