Theta [deg.]  Phi   [deg.]  Abs(Dir.)[      ]   Abs(Theta)[      ]  Phase(Theta)[deg.]  Abs(Phi  )[      ]  Phase(Phi  )[deg.]  Ax.Ratio[      ]    
------------------------------------------------------------------------------------------------------------------------------------------------------
-180.000         -90.000            3.094e-03           3.288e-08               3.104           3.094e-03              31.675           3.162e+02     
-179.000         -90.000            9.179e-03           6.092e-03             332.017           3.086e-03              31.649           1.937e+00     
-178.000         -90.000            2.370e-02           2.064e-02             332.356           3.065e-03              31.525           3.154e+00     
-177.000         -90.000            3.788e-02           3.485e-02             333.082           3.029e-03              31.164           4.099e+00     
-176.000         -90.000            4.317e-02           4.019e-02             334.430           2.977e-03              30.360           4.544e+00     
-175.000         -90.000            3.648e-02           3.357e-02             337.011           2.904e-03              28.871           4.473e+00     
-174.000         -90.000            2.203e-02           1.922e-02             342.683           2.807e-03              26.446           4.091e+00     
-173.000         -90.000            8.743e-03           6.059e-03               0.070           2.683e-03              22.868           5.411e+00     
-172.000         -90.000            4.849e-03           2.317e-03              73.474           2.532e-03              17.955           1.903e+00     
-171.000         -90.000            1.289e-02           1.053e-02             119.477           2.359e-03              11.579           2.279e+00     
-170.000         -90.000            2.823e-02           2.606e-02             130.864           2.174e-03               3.663           4.486e+00     
-169.000         -90.000            4.190e-02           3.991e-02             136.330           1.989e-03             354.184           7.531e+00     
-168.000         -90.000            4.599e-02           4.418e-02             140.807           1.816e-03             343.186           1.341e+01     
-167.000         -90.000            3.841e-02           3.674e-02             146.533           1.667e-03             330.791           6.609e+01     
-166.000         -90.000            2.403e-02           2.248e-02             156.792           1.548e-03             317.220           1.208e+01     
-165.000         -90.000            1.175e-02           1.028e-02             180.700           1.464e-03             302.802           3.268e+00     
-164.000         -90.000            9.117e-03           7.706e-03             229.645           1.411e-03             287.954           2.905e+00     
-163.000         -90.000            1.791e-02           1.653e-02             265.296           1.379e-03             273.091           2.762e+01     
