Theta [deg.]  Phi   [deg.]  Abs(Dir.)[      ]   Abs(Theta)[      ]  Phase(Theta)[deg.]  Abs(Phi  )[      ]  Phase(Phi  )[deg.]  Ax.Ratio[      ]    
------------------------------------------------------------------------------------------------------------------------------------------------------
-180.000         -90.000            7.460e-04           1.620e-07             154.406           7.458e-04             146.817           3.162e+02     
-179.000         -90.000            3.481e-03           2.738e-03             156.448           7.429e-04             146.097           1.351e+01     
-178.000         -90.000            1.056e-02           9.828e-03             156.657           7.336e-04             143.979           1.787e+01     
-177.000         -90.000            1.929e-02           1.857e-02             157.042           7.201e-04             140.552           1.853e+01     
-176.000         -90.000            2.636e-02           2.566e-02             157.688           7.050e-04             135.965           1.669e+01     
-175.000         -90.000            2.911e-02           2.842e-02             158.757           6.901e-04             130.432           1.378e+01     
-174.000         -90.000            2.654e-02           2.587e-02             160.576           6.759e-04             124.205           1.061e+01     
-173.000         -90.000            1.971e-02           1.905e-02             163.879           6.606e-04             117.536           7.547e+00     
-172.000         -90.000            1.131e-02           1.067e-02             170.732           6.406e-04             110.636           4.782e+00     
-171.000         -90.000            4.662e-03           4.051e-03             188.872           6.110e-04             103.622           2.587e+00     
-170.000         -90.000            2.434e-03           1.867e-03             243.579           5.675e-04              96.501           4.108e+00     
-169.000         -90.000            5.651e-03           5.144e-03             290.329           5.075e-04              89.154           9.578e+00     
-168.000         -90.000            1.330e-02           1.287e-02             305.291           4.320e-04              81.304           7.999e+00     
-167.000         -90.000            2.273e-02           2.238e-02             311.529           3.457e-04              72.454           9.418e+00     
-166.000         -90.000            3.059e-02           3.033e-02             315.058           2.575e-04              61.695           1.134e+01     
-165.000         -90.000            3.410e-02           3.392e-02             317.701           1.789e-04              47.405           1.377e+01     
-164.000         -90.000            3.205e-02           3.193e-02             320.389           1.226e-04              27.025           1.759e+01     
-163.000         -90.000            2.522e-02           2.512e-02             324.029           1.000e-04             359.242           2.756e+01     
