Theta [deg.]  Phi   [deg.]  Abs(Dir.)[      ]   Abs(Theta)[      ]  Phase(Theta)[deg.]  Abs(Phi  )[      ]  Phase(Phi  )[deg.]  Ax.Ratio[      ]    
------------------------------------------------------------------------------------------------------------------------------------------------------
-180.000         -90.000            9.687e-03           3.030e-06             153.319           9.684e-03             187.192           1.015e+02     
-179.000         -90.000            1.738e-02           6.718e-03             158.786           1.066e-02             187.221           4.067e+00     
-178.000         -90.000            3.366e-02           1.994e-02             159.187           1.372e-02             186.748           4.158e+00     
-177.000         -90.000            4.610e-02           2.701e-02             159.974           1.908e-02             185.674           4.457e+00     
-176.000         -90.000            4.790e-02           2.128e-02             161.729           2.662e-02             183.970           5.122e+00     
-175.000         -90.000            4.388e-02           8.351e-03             166.864           3.553e-02             181.621           9.900e+00     
-174.000         -90.000            4.475e-02           5.177e-04             212.439           4.424e-02             178.589           1.673e+01     
-173.000         -90.000            5.544e-02           4.717e-03             320.062           5.072e-02             174.789           6.129e+00     
-172.000         -90.000            6.925e-02           1.601e-02             328.918           5.324e-02             170.066           6.419e+00     
-171.000         -90.000            7.373e-02           2.275e-02             333.040           5.098e-02             164.160           1.114e+01     
-170.000         -90.000            6.279e-02           1.823e-02             338.293           4.456e-02             156.656           7.710e+01     
-169.000         -90.000            4.320e-02           7.418e-03             351.881           3.579e-02             146.929           6.122e+00     
-168.000         -90.000            2.907e-02           2.037e-03              55.828           2.704e-02             134.119           3.734e+00     
-167.000         -90.000            2.938e-02           9.053e-03             113.748           2.033e-02             117.591           3.228e+01     
-166.000         -90.000            4.012e-02           2.352e-02             125.835           1.660e-02              98.122           4.123e+00     
-165.000         -90.000            4.834e-02           3.284e-02             130.305           1.550e-02              78.740           2.301e+00     
-164.000         -90.000            4.422e-02           2.843e-02             133.306           1.579e-02              62.640           1.578e+00     
-163.000         -90.000            2.991e-02           1.387e-02             138.113           1.604e-02              50.869           1.091e+00     
