Theta [deg.]  Phi   [deg.]  Abs(Dir.)[      ]   Abs(Theta)[      ]  Phase(Theta)[deg.]  Abs(Phi  )[      ]  Phase(Phi  )[deg.]  Ax.Ratio[      ]    
------------------------------------------------------------------------------------------------------------------------------------------------------
-180.000         -90.000            7.019e-02           3.350e-08              15.468           7.019e-02             187.707           3.162e+02     
-179.000         -90.000            7.221e-02           2.870e-03             347.917           6.934e-02             187.257           1.539e+01     
-178.000         -90.000            7.759e-02           1.068e-02             348.035           6.691e-02             185.899           9.354e+00     
-177.000         -90.000            8.450e-02           2.135e-02             348.315           6.314e-02             183.602           8.612e+00     
-176.000         -90.000            9.047e-02           3.205e-02             348.774           5.842e-02             180.319           1.035e+01     
-175.000         -90.000            9.315e-02           3.994e-02             349.471           5.321e-02             175.996           1.772e+01     
-174.000         -90.000            9.092e-02           4.295e-02             350.518           4.797e-02             170.591           3.162e+02     
-173.000         -90.000            8.348e-02           4.033e-02             352.119           4.314e-02             164.101           1.428e+01     
-172.000         -90.000            7.190e-02           3.287e-02             354.675           3.903e-02             156.596           6.310e+00     
-171.000         -90.000            5.846e-02           2.263e-02             359.071           3.583e-02             148.252           3.740e+00     
-170.000         -90.000            4.606e-02           1.247e-02               7.665           3.359e-02             139.346           2.634e+00     
-169.000         -90.000            3.747e-02           5.252e-03              28.128           3.222e-02             130.220           2.555e+00     
-168.000         -90.000            3.462e-02           3.104e-03              76.316           3.151e-02             121.202           4.749e+00     
-167.000         -90.000            3.806e-02           6.855e-03             117.572           3.121e-02             112.534           2.960e+01     
-166.000         -90.000            4.684e-02           1.582e-02             134.025           3.102e-02             104.341           4.021e+00     
-165.000         -90.000            5.865e-02           2.797e-02             141.647           3.068e-02              96.646           2.418e+00     
-164.000         -90.000            7.045e-02           4.046e-02             146.152           2.998e-02              89.396           1.889e+00     
-163.000         -90.000            7.913e-02           5.033e-02             149.446           2.880e-02              82.498           1.654e+00     
