Theta [deg.]  Phi   [deg.]  Abs(Dir.)[      ]   Abs(Theta)[      ]  Phase(Theta)[deg.]  Abs(Phi  )[      ]  Phase(Phi  )[deg.]  Ax.Ratio[      ]    
------------------------------------------------------------------------------------------------------------------------------------------------------
-180.000         -90.000            8.671e-03           2.889e-07             154.421           8.671e-03             271.441           1.945e+02     
-179.000         -90.000            1.436e-02           5.785e-03             238.452           8.575e-03             270.116           3.607e+00     
-178.000         -90.000            2.735e-02           1.907e-02             238.760           8.271e-03             266.271           4.491e+00     
-177.000         -90.000            3.848e-02           3.057e-02             239.064           7.904e-03             260.000           6.779e+00     
-176.000         -90.000            3.992e-02           3.226e-02             239.604           7.657e-03             251.641           1.210e+01     
-175.000         -90.000            3.067e-02           2.299e-02             240.787           7.678e-03             241.929           1.158e+02     
-174.000         -90.000            1.731e-02           9.283e-03             244.181           8.024e-03             231.903           9.322e+00     
-173.000         -90.000            9.329e-03           7.057e-04             269.322           8.623e-03             222.518           4.987e+00     
-172.000         -90.000            1.256e-02           3.269e-03              40.681           9.293e-03             214.315           2.051e+01     
-171.000         -90.000            2.508e-02           1.529e-02              49.214           9.790e-03             207.402           5.329e+00     
-170.000         -90.000            3.854e-02           2.865e-02              51.896           9.891e-03             201.629           4.310e+00     
-169.000         -90.000            4.387e-02           3.441e-02              53.989           9.461e-03             196.757           3.752e+00     
-168.000         -90.000            3.742e-02           2.892e-02              57.002           8.498e-03             192.543           3.084e+00     
-167.000         -90.000            2.327e-02           1.614e-02              63.393           7.130e-03             188.763           2.207e+00     
-166.000         -90.000            1.041e-02           4.838e-03              83.872           5.574e-03             185.198           1.235e+00     
-165.000         -90.000            6.610e-03           2.552e-03             159.706           4.058e-03             181.628           5.314e+00     
-164.000         -90.000            1.336e-02           1.059e-02             198.543           2.765e-03             177.771           6.812e+00     
-163.000         -90.000            2.511e-02           2.332e-02             209.092           1.790e-03             173.244           6.482e+00     
