Theta [deg.]  Phi   [deg.]  Abs(Dir.)[      ]   Abs(Theta)[      ]  Phase(Theta)[deg.]  Abs(Phi  )[      ]  Phase(Phi  )[deg.]  Ax.Ratio[      ]    
------------------------------------------------------------------------------------------------------------------------------------------------------
-180.000         -90.000            5.775e-02           1.059e-07             294.431           5.775e-02             204.597           3.162e+02     
-179.000         -90.000            6.104e-02           3.919e-03              75.966           5.712e-02             204.375           5.007e+00     
-178.000         -90.000            7.049e-02           1.523e-02              76.183           5.526e-02             203.698           2.692e+00     
-177.000         -90.000            8.476e-02           3.246e-02              76.414           5.229e-02             202.541           2.062e+00     
-176.000         -90.000            1.018e-01           5.339e-02              76.723           4.841e-02             200.860           1.890e+00     
-175.000         -90.000            1.192e-01           7.533e-02              77.138           4.384e-02             198.588           1.906e+00     
-174.000         -90.000            1.344e-01           9.548e-02              77.688           3.889e-02             195.636           1.995e+00     
-173.000         -90.000            1.452e-01           1.113e-01              78.413           3.384e-02             191.886           2.103e+00     
-172.000         -90.000            1.499e-01           1.209e-01              79.368           2.897e-02             187.195           2.207e+00     
-171.000         -90.000            1.478e-01           1.232e-01              80.630           2.455e-02             181.402           2.300e+00     
-170.000         -90.000            1.389e-01           1.181e-01              82.316           2.079e-02             174.364           2.386e+00     
-169.000         -90.000            1.243e-01           1.065e-01              84.607           1.782e-02             166.023           2.483e+00     
-168.000         -90.000            1.058e-01           9.007e-02              87.792           1.573e-02             156.499           2.637e+00     
-167.000         -90.000            8.567e-02           7.115e-02              92.353           1.452e-02             146.175           2.964e+00     
-166.000         -90.000            6.650e-02           5.237e-02              99.128           1.413e-02             135.659           3.846e+00     
-165.000         -90.000            5.075e-02           3.630e-02             109.560           1.444e-02             125.608           7.890e+00     
-164.000         -90.000            4.045e-02           2.516e-02             125.710           1.529e-02             116.500           1.281e+01     
-163.000         -90.000            3.698e-02           2.049e-02             148.282           1.650e-02             108.548           2.789e+00     
