Theta [deg.]  Phi   [deg.]  Abs(Dir.)[      ]   Abs(Theta)[      ]  Phase(Theta)[deg.]  Abs(Phi  )[      ]  Phase(Phi  )[deg.]  Ax.Ratio[      ]    
------------------------------------------------------------------------------------------------------------------------------------------------------
-180.000         -90.000            3.440e-02           2.181e-09             258.455           3.440e-02             285.089           3.162e+02     
-179.000         -90.000            3.750e-02           3.267e-03             133.559           3.424e-02             284.823           7.238e+00     
-178.000         -90.000            4.636e-02           1.259e-02             133.753           3.377e-02             284.029           4.302e+00     
-177.000         -90.000            5.960e-02           2.657e-02             134.091           3.302e-02             282.705           3.584e+00     
-176.000         -90.000            7.519e-02           4.315e-02             134.593           3.205e-02             280.846           3.341e+00     
-175.000         -90.000            9.076e-02           5.986e-02             135.289           3.090e-02             278.452           3.208e+00     
-174.000         -90.000            1.039e-01           7.430e-02             136.224           2.964e-02             275.524           3.071e+00     
-173.000         -90.000            1.128e-01           8.443e-02             137.464           2.835e-02             272.072           2.892e+00     
-172.000         -90.000            1.160e-01           8.890e-02             139.108           2.709e-02             268.117           2.667e+00     
-171.000         -90.000            1.132e-01           8.729e-02             141.304           2.591e-02             263.694           2.403e+00     
-170.000         -90.000            1.050e-01           8.008e-02             144.276           2.487e-02             258.853           2.113e+00     
-169.000         -90.000            9.267e-02           6.868e-02             148.392           2.399e-02             253.666           1.816e+00     
-168.000         -90.000            7.836e-02           5.506e-02             154.244           2.330e-02             248.214           1.546e+00     
-167.000         -90.000            6.437e-02           4.159e-02             162.798           2.279e-02             242.586           1.421e+00     
-166.000         -90.000            5.299e-02           3.056e-02             175.458           2.243e-02             236.874           1.725e+00     
-165.000         -90.000            4.613e-02           2.391e-02             193.378           2.222e-02             231.160           2.925e+00     
-164.000         -90.000            4.502e-02           2.293e-02             214.964           2.209e-02             225.509           1.084e+01     
-163.000         -90.000            5.009e-02           2.806e-02             235.050           2.202e-02             219.973           7.614e+00     
