Theta [deg.]  Phi   [deg.]  Abs(Dir.)[      ]   Abs(Theta)[      ]  Phase(Theta)[deg.]  Abs(Phi  )[      ]  Phase(Phi  )[deg.]  Ax.Ratio[      ]    
------------------------------------------------------------------------------------------------------------------------------------------------------
-180.000         -90.000            3.201e-03           1.915e-07             200.957           3.201e-03             353.853           2.837e+02     
-179.000         -90.000            7.763e-03           4.686e-03             109.969           3.077e-03             352.518           1.724e+00     
-178.000         -90.000            1.897e-02           1.623e-02             109.974           2.747e-03             348.483           2.999e+00     
-177.000         -90.000            3.073e-02           2.842e-02             110.293           2.314e-03             341.313           4.661e+00     
-176.000         -90.000            3.661e-02           3.470e-02             110.974           1.906e-03             330.503           6.929e+00     
-175.000         -90.000            3.334e-02           3.171e-02             112.309           1.634e-03             316.124           1.138e+01     
-174.000         -90.000            2.263e-02           2.108e-02             115.134           1.555e-03             299.762           4.898e+01     
-173.000         -90.000            1.031e-02           8.656e-03             122.698           1.654e-03             284.137           8.442e+00     
-172.000         -90.000            3.251e-03           1.399e-03             160.796           1.852e-03             271.122           1.477e+00     
-171.000         -90.000            5.734e-03           3.695e-03             251.780           2.039e-03             260.954           1.303e+01     
-170.000         -90.000            1.711e-02           1.500e-02             268.441           2.109e-03             253.064           1.138e+01     
-169.000         -90.000            3.201e-02           3.002e-02             273.368           1.996e-03             246.811           9.141e+00     
-168.000         -90.000            4.307e-02           4.138e-02             275.830           1.696e-03             241.729           9.061e+00     
-167.000         -90.000            4.464e-02           4.338e-02             277.710           1.260e-03             237.564           9.259e+00     
-166.000         -90.000            3.573e-02           3.495e-02             279.989           7.799e-04             234.327           9.463e+00     
-165.000         -90.000            2.058e-02           2.022e-02             284.170           3.604e-04             232.611           9.631e+00     
-164.000         -90.000            6.725e-03           6.638e-03             296.087           8.689e-05             236.245           1.014e+01     
-163.000         -90.000            1.302e-03           1.295e-03               3.609           6.429e-06             331.234           2.660e+01     
