Theta [deg.]  Phi   [deg.]  Abs(Dir.)[      ]   Abs(Theta)[      ]  Phase(Theta)[deg.]  Abs(Phi  )[      ]  Phase(Phi  )[deg.]  Ax.Ratio[      ]    
------------------------------------------------------------------------------------------------------------------------------------------------------
-180.000         -90.000            7.262e-03           1.734e-07             116.194           7.262e-03             311.620           3.162e+02     
-179.000         -90.000            1.207e-02           5.150e-03             154.853           6.915e-03             310.542           4.698e+00     
-178.000         -90.000            2.417e-02           1.818e-02             155.225           5.991e-03             307.434           4.757e+00     
-177.000         -90.000            3.790e-02           3.318e-02             155.766           4.720e-03             301.658           5.209e+00     
-176.000         -90.000            4.684e-02           4.343e-02             156.651           3.415e-03             291.916           5.276e+00     
-175.000         -90.000            4.678e-02           4.438e-02             158.136           2.396e-03             276.156           4.936e+00     
-174.000         -90.000            3.771e-02           3.580e-02             160.780           1.911e-03             253.337           4.334e+00     
-173.000         -90.000            2.386e-02           2.178e-02             166.082           2.077e-03             228.205           3.746e+00     
-172.000         -90.000            1.165e-02           8.796e-03             179.483           2.854e-03             208.124           4.635e+00     
-171.000         -90.000            6.804e-03           2.748e-03             226.137           4.055e-03             194.368           3.592e+00     
-170.000         -90.000            1.165e-02           6.256e-03             286.412           5.395e-03             184.879           1.241e+00     
-169.000         -90.000            2.406e-02           1.751e-02             304.835           6.555e-03             177.872           2.393e+00     
-168.000         -90.000            3.842e-02           3.116e-02             311.794           7.263e-03             172.287           3.660e+00     
-167.000         -90.000            4.813e-02           4.079e-02             315.596           7.346e-03             167.513           5.062e+00     
-166.000         -90.000            4.865e-02           4.188e-02             318.511           6.773e-03             163.168           6.777e+00     
-165.000         -90.000            3.950e-02           3.385e-02             321.772           5.649e-03             158.972           9.555e+00     
-164.000         -90.000            2.455e-02           2.036e-02             327.136           4.193e-03             154.641           2.029e+01     
-163.000         -90.000            1.038e-02           7.700e-03             340.472           2.678e-03             149.736           1.219e+01     
