Theta [deg.]  Phi   [deg.]  Abs(Dir.)[      ]   Abs(Theta)[      ]  Phase(Theta)[deg.]  Abs(Phi  )[      ]  Phase(Phi  )[deg.]  Ax.Ratio[      ]    
------------------------------------------------------------------------------------------------------------------------------------------------------
-180.000         -90.000            8.777e-03           1.665e-07             183.118           8.777e-03             242.825           2.659e+02     
-179.000         -90.000            1.190e-02           3.210e-03             316.746           8.685e-03             242.160           1.773e+00     
-178.000         -90.000            1.985e-02           1.142e-02             317.165           8.432e-03             240.165           1.317e+00     
-177.000         -90.000            2.887e-02           2.082e-02             317.727           8.046e-03             236.872           1.655e+00     
-176.000         -90.000            3.465e-02           2.709e-02             318.638           7.562e-03             232.337           1.900e+00     
-175.000         -90.000            3.435e-02           2.734e-02             320.189           7.017e-03             226.646           1.980e+00     
-174.000         -90.000            2.794e-02           2.150e-02             323.027           6.442e-03             219.902           1.916e+00     
-173.000         -90.000            1.824e-02           1.239e-02             328.991           5.850e-03             212.216           1.863e+00     
-172.000         -90.000            9.694e-03           4.443e-03             345.634           5.250e-03             203.666           2.914e+00     
-171.000         -90.000            6.329e-03           1.684e-03              46.522           4.645e-03             194.273           3.991e+00     
-170.000         -90.000            9.958e-03           5.918e-03              97.178           4.040e-03             183.970           1.220e+00     
-169.000         -90.000            1.933e-02           1.587e-02             110.982           3.452e-03             172.582           2.581e+00     
-168.000         -90.000            3.063e-02           2.772e-02             116.773           2.906e-03             159.842           4.789e+00     
-167.000         -90.000            3.919e-02           3.675e-02             120.397           2.435e-03             145.449           9.679e+00     
-166.000         -90.000            4.145e-02           3.938e-02             123.646           2.073e-03             129.221           4.720e+01     
-165.000         -90.000            3.654e-02           3.470e-02             127.659           1.842e-03             111.329           1.619e+01     
-164.000         -90.000            2.661e-02           2.487e-02             134.002           1.747e-03              92.463           5.920e+00     
-163.000         -90.000            1.591e-02           1.413e-02             146.198           1.777e-03              73.636           2.994e+00     
