Theta [deg.]  Phi   [deg.]  Abs(Dir.)[      ]   Abs(Theta)[      ]  Phase(Theta)[deg.]  Abs(Phi  )[      ]  Phase(Phi  )[deg.]  Ax.Ratio[      ]    
------------------------------------------------------------------------------------------------------------------------------------------------------
-180.000         -90.000            3.515e-03           2.395e-08             152.707           3.515e-03             341.134           3.162e+02     
-179.000         -90.000            6.986e-03           3.599e-03             306.209           3.387e-03             340.100           3.284e+00     
-178.000         -90.000            1.657e-02           1.355e-02             306.337           3.022e-03             336.842           4.897e+00     
-177.000         -90.000            2.992e-02           2.741e-02             306.488           2.506e-03             330.774           8.660e+00     
-176.000         -90.000            4.374e-02           4.178e-02             306.715           1.966e-03             320.790           1.980e+01     
-175.000         -90.000            5.468e-02           5.313e-02             307.061           1.546e-03             305.433           2.122e+02     
-174.000         -90.000            6.008e-02           5.869e-02             307.594           1.389e-03             284.527           1.692e+01     
-173.000         -90.000            5.870e-02           5.709e-02             308.428           1.610e-03             261.989           8.330e+00     
-172.000         -90.000            5.102e-02           4.875e-02             309.779           2.277e-03             243.109           5.077e+00     
-171.000         -90.000            3.916e-02           3.576e-02             312.093           3.405e-03             229.182           3.271e+00     
-170.000         -90.000            2.632e-02           2.138e-02             316.512           4.948e-03             218.888           2.108e+00     
-169.000         -90.000            1.610e-02           9.292e-03             326.784           6.812e-03             210.812           1.643e+00     
-168.000         -90.000            1.158e-02           2.712e-03               0.435           8.867e-03             204.005           5.731e+00     
-167.000         -90.000            1.457e-02           3.608e-03              68.476           1.097e-02             197.888           2.617e+00     
-166.000         -90.000            2.520e-02           1.224e-02              94.069           1.296e-02             192.104           1.154e+00     
-165.000         -90.000            4.182e-02           2.709e-02             102.690           1.473e-02             186.420           1.383e+00     
-164.000         -90.000            6.136e-02           4.518e-02             106.875           1.618e-02             180.682           1.811e+00     
-163.000         -90.000            8.003e-02           6.278e-02             109.488           1.725e-02             174.781           2.228e+00     
