Theta [deg.]  Phi   [deg.]  Abs(Dir.)[      ]   Abs(Theta)[      ]  Phase(Theta)[deg.]  Abs(Phi  )[      ]  Phase(Phi  )[deg.]  Ax.Ratio[      ]    
------------------------------------------------------------------------------------------------------------------------------------------------------
-180.000         -90.000            1.314e-03           4.494e-08             110.825           1.314e-03             178.614           1.847e+02     
-179.000         -90.000            4.197e-03           2.892e-03              82.705           1.306e-03             178.110           1.505e+00     
-178.000         -90.000            1.188e-02           1.060e-02              82.841           1.283e-03             176.619           2.883e+00     
-177.000         -90.000            2.191e-02           2.066e-02              83.174           1.247e-03             174.158           4.071e+00     
-176.000         -90.000            3.107e-02           2.987e-02              83.738           1.201e-03             170.760           4.994e+00     
-175.000         -90.000            3.648e-02           3.533e-02              84.634           1.150e-03             166.479           5.603e+00     
-174.000         -90.000            3.646e-02           3.536e-02              86.057           1.096e-03             161.400           5.884e+00     
-173.000         -90.000            3.111e-02           3.007e-02              88.395           1.041e-03             155.633           5.860e+00     
-172.000         -90.000            2.224e-02           2.125e-02              92.513           9.862e-04             149.311           5.628e+00     
-171.000         -90.000            1.277e-02           1.184e-02             100.727           9.298e-04             142.572           5.591e+00     
-170.000         -90.000            5.802e-03           4.933e-03             120.686           8.690e-04             135.529           1.085e+01     
-169.000         -90.000            3.600e-03           2.800e-03             169.252           8.000e-04             128.252           3.369e+00     
-168.000         -90.000            6.902e-03           6.182e-03             211.159           7.194e-04             120.727           2.932e+00     
-167.000         -90.000            1.470e-02           1.408e-02             227.441           6.255e-04             112.834           5.259e+00     
-166.000         -90.000            2.458e-02           2.407e-02             234.825           5.197e-04             104.282           9.038e+00     
-165.000         -90.000            3.352e-02           3.312e-02             239.172           4.073e-04              94.511           1.572e+01     
-164.000         -90.000            3.882e-02           3.852e-02             242.430           2.983e-04              82.458           3.341e+01     
-163.000         -90.000            3.894e-02           3.873e-02             245.554           2.062e-04              66.164           3.162e+02     
