Theta [deg.]  Phi   [deg.]  Abs(Dir.)[      ]   Abs(Theta)[      ]  Phase(Theta)[deg.]  Abs(Phi  )[      ]  Phase(Phi  )[deg.]  Ax.Ratio[      ]    
------------------------------------------------------------------------------------------------------------------------------------------------------
-180.000         -90.000            2.918e-04           2.849e-09             144.653           2.918e-04             331.390           3.162e+02     
-179.000         -90.000            3.491e-03           3.196e-03              31.166           2.950e-04             330.625           3.871e+00     
-178.000         -90.000            1.206e-02           1.175e-02              31.251           3.046e-04             328.397           7.019e+00     
-177.000         -90.000            2.322e-02           2.290e-02              31.453           3.216e-04             324.942           9.222e+00     
-176.000         -90.000            3.339e-02           3.304e-02              31.805           3.465e-04             320.598           1.033e+01     
-175.000         -90.000            3.931e-02           3.893e-02              32.387           3.796e-04             315.734           1.041e+01     
-174.000         -90.000            3.913e-02           3.871e-02              33.353           4.200e-04             310.677           9.681e+00     
-173.000         -90.000            3.301e-02           3.254e-02              35.007           4.652e-04             305.653           8.364e+00     
-172.000         -90.000            2.300e-02           2.248e-02              38.053           5.114e-04             300.788           6.687e+00     
-171.000         -90.000            1.240e-02           1.185e-02              44.497           5.538e-04             296.112           4.898e+00     
-170.000         -90.000            4.685e-03           4.098e-03              62.330           5.873e-04             291.594           3.717e+00     
-169.000         -90.000            2.332e-03           1.724e-03             121.613           6.074e-04             287.162           9.019e+00     
-168.000         -90.000            6.078e-03           5.466e-03             169.098           6.114e-04             282.724           3.328e+00     
-167.000         -90.000            1.469e-02           1.409e-02             182.899           5.982e-04             278.177           4.876e+00     
-166.000         -90.000            2.538e-02           2.482e-02             188.569           5.693e-04             273.412           6.630e+00     
-165.000         -90.000            3.475e-02           3.423e-02             191.795           5.281e-04             268.315           8.286e+00     
-164.000         -90.000            3.985e-02           3.937e-02             194.239           4.793e-04             262.783           9.754e+00     
-163.000         -90.000            3.912e-02           3.869e-02             196.729           4.282e-04             256.739           1.101e+01     
