Theta [deg.]  Phi   [deg.]  Abs(Dir.)[      ]   Abs(Theta)[      ]  Phase(Theta)[deg.]  Abs(Phi  )[      ]  Phase(Phi  )[deg.]  Ax.Ratio[      ]    
------------------------------------------------------------------------------------------------------------------------------------------------------
-180.000         -90.000            2.001e-02           6.149e-07              42.232           2.001e-02             353.622           2.405e+02     
-179.000         -90.000            2.532e-02           5.243e-03              49.351           2.007e-02             352.969           2.575e+00     
-178.000         -90.000            3.865e-02           1.839e-02              49.495           2.026e-02             351.083           1.793e+00     
-177.000         -90.000            5.406e-02           3.351e-02              49.722           2.055e-02             348.114           1.780e+00     
-176.000         -90.000            6.473e-02           4.379e-02              50.125           2.093e-02             344.284           1.782e+00     
-175.000         -90.000            6.596e-02           4.463e-02              50.866           2.133e-02             339.839           1.657e+00     
-174.000         -90.000            5.730e-02           3.568e-02              52.301           2.162e-02             335.009           1.401e+00     
-173.000         -90.000            4.270e-02           2.105e-02              55.419           2.165e-02             329.969           1.084e+00     
-172.000         -90.000            2.867e-02           7.414e-03              64.342           2.126e-02             324.830           1.741e+00     
-171.000         -90.000            2.136e-02           1.053e-03             117.041           2.031e-02             319.635           1.194e+01     
-170.000         -90.000            2.381e-02           5.053e-03             197.372           1.876e-02             314.376           2.313e+00     
-169.000         -90.000            3.460e-02           1.796e-02             210.233           1.664e-02             309.006           1.172e+00     
-168.000         -90.000            4.851e-02           3.440e-02             214.614           1.410e-02             303.458           1.563e+00     
-167.000         -90.000            5.887e-02           4.752e-02             217.184           1.135e-02             297.662           2.092e+00     
-166.000         -90.000            6.051e-02           5.187e-02             219.549           8.635e-03             291.555           2.625e+00     
-165.000         -90.000            5.202e-02           4.586e-02             222.703           6.160e-03             285.110           3.177e+00     
-164.000         -90.000            3.640e-02           3.232e-02             228.110           4.081e-03             278.389           3.862e+00     
-163.000         -90.000            1.977e-02           1.730e-02             239.458           2.467e-03             271.640           5.500e+00     
