Theta [deg.]  Phi   [deg.]  Abs(Dir.)[      ]   Abs(Theta)[      ]  Phase(Theta)[deg.]  Abs(Phi  )[      ]  Phase(Phi  )[deg.]  Ax.Ratio[      ]    
------------------------------------------------------------------------------------------------------------------------------------------------------
-180.000         -90.000            2.331e-03           4.049e-08             101.853           2.331e-03             343.040           2.738e+02     
-179.000         -90.000            4.743e-03           2.422e-03              26.430           2.321e-03             342.255           2.465e+00     
-178.000         -90.000            1.093e-02           8.635e-03              26.588           2.293e-03             339.961           3.051e+00     
-177.000         -90.000            1.822e-02           1.597e-02              27.070           2.253e-03             336.264           3.645e+00     
-176.000         -90.000            2.349e-02           2.128e-02              27.945           2.210e-03             331.339           3.842e+00     
-175.000         -90.000            2.446e-02           2.229e-02              29.459           2.166e-03             325.420           3.640e+00     
-174.000         -90.000            2.076e-02           1.864e-02              32.172           2.122e-03             318.764           3.124e+00     
-173.000         -90.000            1.404e-02           1.197e-02              37.541           2.069e-03             311.612           2.414e+00     
-172.000         -90.000            7.339e-03           5.344e-03              50.541           1.995e-03             304.125           1.782e+00     
-171.000         -90.000            3.770e-03           1.883e-03              91.603           1.887e-03             296.365           4.555e+00     
-170.000         -90.000            5.208e-03           3.470e-03             150.594           1.737e-03             288.275           2.792e+00     
-169.000         -90.000            1.148e-02           9.933e-03             171.685           1.544e-03             279.678           2.713e+00     
-168.000         -90.000            2.039e-02           1.908e-02             179.631           1.317e-03             270.266           3.806e+00     
-167.000         -90.000            2.863e-02           2.756e-02             183.811           1.075e-03             259.569           5.236e+00     
-166.000         -90.000            3.307e-02           3.222e-02             186.768           8.442e-04             246.928           7.170e+00     
-165.000         -90.000            3.201e-02           3.136e-02             189.634           6.498e-04             231.519           1.053e+01     
-164.000         -90.000            2.589e-02           2.538e-02             193.388           5.137e-04             212.663           2.168e+01     
-163.000         -90.000            1.705e-02           1.660e-02             199.665           4.491e-04             190.743           4.023e+01     
