Theta [deg.]  Phi   [deg.]  Abs(Dir.)[      ]   Abs(Theta)[      ]  Phase(Theta)[deg.]  Abs(Phi  )[      ]  Phase(Phi  )[deg.]  Ax.Ratio[      ]    
------------------------------------------------------------------------------------------------------------------------------------------------------
-180.000         -90.000            2.468e-03           8.824e-08              42.171           2.468e-03              69.240           3.162e+02     
-179.000         -90.000            4.443e-03           1.965e-03             298.124           2.478e-03              68.713           2.196e+00     
-178.000         -90.000            9.957e-03           7.453e-03             298.038           2.504e-03              67.179           2.585e+00     
-177.000         -90.000            1.784e-02           1.529e-02             298.163           2.551e-03              64.722           3.249e+00     
-176.000         -90.000            2.644e-02           2.381e-02             298.429           2.623e-03              61.476           3.722e+00     
-175.000         -90.000            3.394e-02           3.122e-02             298.859           2.726e-03              57.613           3.944e+00     
-174.000         -90.000            3.882e-02           3.595e-02             299.511           2.861e-03              53.327           3.928e+00     
-173.000         -90.000            4.009e-02           3.706e-02             300.488           3.030e-03              48.813           3.716e+00     
-172.000         -90.000            3.758e-02           3.436e-02             301.964           3.226e-03              44.240           3.355e+00     
-171.000         -90.000            3.194e-02           2.850e-02             304.271           3.444e-03              39.736           2.894e+00     
-170.000         -90.000            2.446e-02           2.079e-02             308.066           3.668e-03              35.390           2.384e+00     
-169.000         -90.000            1.683e-02           1.294e-02             314.851           3.886e-03              31.249           1.921e+00     
-168.000         -90.000            1.076e-02           6.676e-03             328.555           4.081e-03              27.331           1.877e+00     
-167.000         -90.000            7.600e-03           3.361e-03             358.596           4.239e-03              23.635           4.537e+00     
-166.000         -90.000            8.091e-03           3.744e-03              41.790           4.347e-03              20.149           5.248e+00     
-165.000         -90.000            1.218e-02           7.784e-03              67.886           4.397e-03              16.857           2.230e+00     
-164.000         -90.000            1.907e-02           1.468e-02              79.937           4.387e-03              13.743           2.126e+00     
-163.000         -90.000            2.736e-02           2.304e-02              86.345           4.319e-03              10.800           2.419e+00     
