Theta [deg.]  Phi   [deg.]  Abs(Dir.)[      ]   Abs(Theta)[      ]  Phase(Theta)[deg.]  Abs(Phi  )[      ]  Phase(Phi  )[deg.]  Ax.Ratio[      ]    
------------------------------------------------------------------------------------------------------------------------------------------------------
-180.000         -90.000            1.983e-02           4.568e-09              29.422           1.983e-02             234.154           3.162e+02     
-179.000         -90.000            2.434e-02           4.778e-03             200.550           1.957e-02             233.700           4.376e+00     
-178.000         -90.000            3.592e-02           1.712e-02             200.754           1.880e-02             232.354           3.538e+00     
-177.000         -90.000            4.943e-02           3.185e-02             201.133           1.757e-02             230.098           4.068e+00     
-176.000         -90.000            5.875e-02           4.280e-02             201.776           1.595e-02             226.896           5.100e+00     
-175.000         -90.000            5.942e-02           4.538e-02             202.856           1.404e-02             222.679           6.795e+00     
-174.000         -90.000            5.049e-02           3.856e-02             204.746           1.193e-02             217.324           1.072e+01     
-173.000         -90.000            3.505e-02           2.528e-02             208.388           9.765e-03             210.611           5.747e+01     
-172.000         -90.000            1.895e-02           1.128e-02             217.037           7.670e-03             202.171           7.812e+00     
-171.000         -90.000            8.505e-03           2.716e-03             249.024           5.789e-03             191.371           2.051e+00     
-170.000         -90.000            7.893e-03           3.634e-03             328.895           4.258e-03             177.235           3.975e+00     
-169.000         -90.000            1.747e-02           1.427e-02             353.877           3.205e-03             158.628           9.721e+00     
-168.000         -90.000            3.367e-02           3.094e-02               1.792           2.733e-03             135.491           4.859e+00     
-167.000         -90.000            5.041e-02           4.751e-02               6.022           2.906e-03             110.794           4.199e+00     
-166.000         -90.000            6.163e-02           5.789e-02               9.364           3.740e-03              88.883           4.010e+00     
-165.000         -90.000            6.359e-02           5.840e-02              13.000           5.190e-03              71.395           4.041e+00     
-164.000         -90.000            5.642e-02           4.928e-02              18.031           7.149e-03              57.571           4.500e+00     
-163.000         -90.000            4.396e-02           3.451e-02              26.321           9.450e-03              46.233           7.005e+00     
