Theta [deg.]  Phi   [deg.]  Abs(Dir.)[      ]   Abs(Theta)[      ]  Phase(Theta)[deg.]  Abs(Phi  )[      ]  Phase(Phi  )[deg.]  Ax.Ratio[      ]    
------------------------------------------------------------------------------------------------------------------------------------------------------
-180.000         -90.000            1.688e-02           1.435e-08              90.835           1.688e-02             116.832           3.162e+02     
-179.000         -90.000            2.474e-02           8.173e-03             121.424           1.656e-02             116.482           2.464e+01     
-178.000         -90.000            4.589e-02           3.026e-02             121.512           1.563e-02             115.426           1.985e+01     
-177.000         -90.000            7.396e-02           5.977e-02             121.651           1.419e-02             113.619           1.812e+01     
-176.000         -90.000            1.004e-01           8.804e-02             121.882           1.239e-02             110.986           1.603e+01     
-175.000         -90.000            1.172e-01           1.068e-01             122.266           1.040e-02             107.415           1.365e+01     
-174.000         -90.000            1.190e-01           1.106e-01             122.907           8.407e-03             102.751           1.124e+01     
-173.000         -90.000            1.048e-01           9.827e-02             124.000           6.556e-03              96.792           8.921e+00     
-172.000         -90.000            7.860e-02           7.364e-02             125.968           4.956e-03              89.314           6.744e+00     
-171.000         -90.000            4.771e-02           4.404e-02             129.892           3.662e-03              80.078           4.704e+00     
-170.000         -90.000            2.108e-02           1.840e-02             139.519           2.681e-03              68.918           2.829e+00     
-169.000         -90.000            6.584e-03           4.611e-03             175.073           1.973e-03              55.829           2.002e+00     
-168.000         -90.000            8.790e-03           7.310e-03             248.996           1.480e-03              41.016           5.515e+00     
-167.000         -90.000            2.765e-02           2.652e-02             271.921           1.136e-03              24.753           5.279e+00     
-166.000         -90.000            5.853e-02           5.764e-02             279.277           8.871e-04               7.067           8.067e+00     
-165.000         -90.000            9.348e-02           9.277e-02             282.832           7.062e-04             347.439           1.271e+01     
-164.000         -90.000            1.235e-01           1.229e-01             285.138           5.911e-04             325.026           2.254e+01     
-163.000         -90.000            1.408e-01           1.402e-01             287.122           5.630e-04             299.914           7.155e+01     
