Theta [deg.]  Phi   [deg.]  Abs(Dir.)[      ]   Abs(Theta)[      ]  Phase(Theta)[deg.]  Abs(Phi  )[      ]  Phase(Phi  )[deg.]  Ax.Ratio[      ]    
------------------------------------------------------------------------------------------------------------------------------------------------------
-180.000         -90.000            3.618e-03           1.591e-06              70.394           3.616e-03             135.769           5.245e+01     
-179.000         -90.000            8.710e-03           5.320e-03             150.010           3.390e-03             134.603           7.588e+00     
-178.000         -90.000            2.123e-02           1.839e-02             150.528           2.837e-03             131.027           8.687e+00     
-177.000         -90.000            3.438e-02           3.225e-02             150.769           2.125e-03             124.120           9.149e+00     
-176.000         -90.000            4.100e-02           3.954e-02             151.023           1.461e-03             112.064           8.460e+00     
-175.000         -90.000            3.739e-02           3.636e-02             151.450           1.028e-03              92.610           7.004e+00     
-174.000         -90.000            2.533e-02           2.441e-02             152.362           9.241e-04              67.294           5.160e+00     
-173.000         -90.000            1.118e-02           1.004e-02             154.886           1.138e-03              44.383           3.220e+00     
-172.000         -90.000            2.542e-03           9.865e-04             170.665           1.556e-03              28.533           3.011e+00     
-171.000         -90.000            4.294e-03           2.291e-03             313.274           2.003e-03              18.185           1.581e+00     
-170.000         -90.000            1.600e-02           1.369e-02             322.149           2.305e-03              11.050           3.493e+00     
-169.000         -90.000            3.210e-02           2.976e-02             324.408           2.343e-03               5.685           5.651e+00     
-168.000         -90.000            4.477e-02           4.268e-02             325.771           2.088e-03               1.252           8.046e+00     
-167.000         -90.000            4.781e-02           4.621e-02             327.248           1.602e-03             357.213           1.103e+01     
-166.000         -90.000            3.981e-02           3.879e-02             329.566           1.015e-03             353.090           1.583e+01     
-165.000         -90.000            2.474e-02           2.426e-02             334.128           4.790e-04             348.100           3.002e+01     
-164.000         -90.000            9.967e-03           9.847e-03             345.761           1.199e-04             339.072           7.874e+01     
-163.000         -90.000            2.576e-03           2.571e-03              30.299           5.193e-06             243.882           4.028e+01     
