Theta [deg.]  Phi   [deg.]  Abs(Dir.)[      ]   Abs(Theta)[      ]  Phase(Theta)[deg.]  Abs(Phi  )[      ]  Phase(Phi  )[deg.]  Ax.Ratio[      ]    
------------------------------------------------------------------------------------------------------------------------------------------------------
-180.000         -90.000            5.987e-02           2.100e-06             325.969           5.987e-02              32.743           1.837e+02     
-179.000         -90.000            6.183e-02           3.233e-03              57.240           5.860e-02              32.286           1.055e+01     
-178.000         -90.000            6.731e-02           1.204e-02              57.969           5.527e-02              30.928           5.560e+00     
-177.000         -90.000            7.423e-02           2.395e-02              58.217           5.028e-02              28.582           4.081e+00     
-176.000         -90.000            7.986e-02           3.565e-02              58.357           4.421e-02              25.101           3.372e+00     
-175.000         -90.000            8.162e-02           4.388e-02              58.480           3.774e-02              20.276           2.898e+00     
-174.000         -90.000            7.788e-02           4.633e-02              58.646           3.155e-02              13.851           2.490e+00     
-173.000         -90.000            6.856e-02           4.233e-02              58.920           2.623e-02               5.591           2.086e+00     
-172.000         -90.000            5.521e-02           3.300e-02              59.434           2.221e-02             355.435           1.670e+00     
-171.000         -90.000            4.063e-02           2.093e-02              60.483           1.970e-02             343.721           1.265e+00     
-170.000         -90.000            2.819e-02           9.503e-03              63.021           1.869e-02             331.302           1.404e+00     
-169.000         -90.000            2.089e-02           1.941e-03              72.869           1.895e-02             319.268           3.471e+00     
-168.000         -90.000            2.055e-02           4.431e-04             194.729           2.011e-02             308.455           7.385e+00     
-167.000         -90.000            2.730e-02           5.596e-03             224.387           2.171e-02             299.173           2.088e+00     
-166.000         -90.000            3.949e-02           1.622e-02             228.780           2.327e-02             291.329           1.704e+00     
-165.000         -90.000            5.407e-02           2.969e-02             230.565           2.438e-02             284.646           1.975e+00     
-164.000         -90.000            6.739e-02           4.265e-02             231.698           2.475e-02             278.819           2.417e+00     
-163.000         -90.000            7.607e-02           5.185e-02             232.731           2.422e-02             273.566           2.943e+00     
