Theta [deg.]  Phi   [deg.]  Abs(Dir.)[      ]   Abs(Theta)[      ]  Phase(Theta)[deg.]  Abs(Phi  )[      ]  Phase(Phi  )[deg.]  Ax.Ratio[      ]    
------------------------------------------------------------------------------------------------------------------------------------------------------
-180.000         -90.000            1.618e-03           9.706e-10             207.048           1.618e-03             349.766           3.162e+02     
-179.000         -90.000            6.999e-03           5.495e-03             303.386           1.504e-03             348.730           3.100e+00     
-178.000         -90.000            1.970e-02           1.850e-02             303.492           1.201e-03             345.310           6.104e+00     
-177.000         -90.000            3.160e-02           3.078e-02             303.704           8.124e-04             338.190           1.107e+01     
-176.000         -90.000            3.505e-02           3.458e-02             304.134           4.666e-04             323.995           2.564e+01     
-175.000         -90.000            2.778e-02           2.751e-02             305.054           2.727e-04             296.541           6.850e+01     
-174.000         -90.000            1.433e-02           1.405e-02             307.358           2.793e-04             260.017           9.735e+00     
-173.000         -90.000            3.224e-03           2.767e-03             316.950           4.576e-04             234.596           2.490e+00     
-172.000         -90.000            1.600e-03           8.867e-04              89.619           7.132e-04             220.869           2.227e+00     
-171.000         -90.000            1.077e-02           9.847e-03             111.863           9.231e-04             212.843           3.339e+00     
-170.000         -90.000            2.540e-02           2.441e-02             115.750           9.843e-04             207.512           4.983e+00     
-169.000         -90.000            3.680e-02           3.595e-02             117.946           8.564e-04             203.650           6.498e+00     
-168.000         -90.000            3.830e-02           3.772e-02             120.327           5.803e-04             200.872           8.176e+00     
-167.000         -90.000            2.919e-02           2.893e-02             124.217           2.641e-04             199.731           1.082e+01     
-166.000         -90.000            1.516e-02           1.512e-02             132.688           4.306e-05             206.791           1.949e+01     
-165.000         -90.000            4.725e-03           4.699e-03             159.090           2.585e-05             343.213           1.885e+02     
-164.000         -90.000            4.114e-03           3.864e-03             229.075           2.503e-04             355.008           4.965e+00     
-163.000         -90.000            1.365e-02           1.299e-02             261.851           6.657e-04             353.641           4.419e+00     
