Theta [deg.]  Phi   [deg.]  Abs(Dir.)[      ]   Abs(Theta)[      ]  Phase(Theta)[deg.]  Abs(Phi  )[      ]  Phase(Phi  )[deg.]  Ax.Ratio[      ]    
------------------------------------------------------------------------------------------------------------------------------------------------------
-180.000         -90.000            2.951e-03           2.051e-08             238.069           2.951e-03             191.851           3.162e+02     
-179.000         -90.000            7.592e-03           4.628e-03             160.126           2.964e-03             190.888           3.740e+00     
-178.000         -90.000            2.061e-02           1.760e-02             160.148           3.011e-03             188.026           5.886e+00     
-177.000         -90.000            3.952e-02           3.640e-02             160.256           3.115e-03             183.432           9.322e+00     
-176.000         -90.000            6.068e-02           5.737e-02             160.443           3.310e-03             177.418           1.502e+01     
-175.000         -90.000            8.009e-02           7.645e-02             160.730           3.636e-03             170.437           2.845e+01     
-174.000         -90.000            9.409e-02           8.996e-02             161.156           4.134e-03             163.014           1.504e+02     
-173.000         -90.000            1.002e-01           9.532e-02             161.781           4.838e-03             155.628           4.349e+01     
-172.000         -90.000            9.734e-02           9.157e-02             162.711           5.768e-03             148.610           1.733e+01     
-171.000         -90.000            8.645e-02           7.952e-02             164.125           6.928e-03             142.125           9.729e+00     
-170.000         -90.000            6.988e-02           6.158e-02             166.370           8.300e-03             136.198           5.983e+00     
-169.000         -90.000            5.117e-02           4.132e-02             170.199           9.846e-03             130.777           3.726e+00     
-168.000         -90.000            3.428e-02           2.277e-02             177.544           1.151e-02             125.773           2.251e+00     
-167.000         -90.000            2.283e-02           9.617e-03             194.592           1.321e-02             121.089           1.396e+00     
-166.000         -90.000            1.943e-02           4.556e-03             238.359           1.488e-02             116.634           2.349e+00     
-165.000         -90.000            2.517e-02           8.761e-03             285.493           1.641e-02             112.326           1.759e+01     
-164.000         -90.000            3.942e-02           2.169e-02             304.628           1.774e-02             108.093           6.918e+00     
-163.000         -90.000            5.997e-02           4.119e-02             312.906           1.878e-02             103.871           4.205e+00     
