Theta [deg.]  Phi   [deg.]  Abs(Dir.)[      ]   Abs(Theta)[      ]  Phase(Theta)[deg.]  Abs(Phi  )[      ]  Phase(Phi  )[deg.]  Ax.Ratio[      ]    
------------------------------------------------------------------------------------------------------------------------------------------------------
-180.000         -90.000            1.815e-02           1.441e-07             155.374           1.815e-02             289.216           3.162e+02     
-179.000         -90.000            2.247e-02           4.716e-03             137.235           1.775e-02             288.622           4.925e+00     
-178.000         -90.000            3.377e-02           1.718e-02             137.364           1.660e-02             286.774           3.657e+00     
-177.000         -90.000            4.801e-02           3.317e-02             137.680           1.483e-02             283.554           3.578e+00     
-176.000         -90.000            6.001e-02           4.732e-02             138.218           1.269e-02             278.749           3.573e+00     
-175.000         -90.000            6.533e-02           5.490e-02             139.080           1.043e-02             272.030           3.439e+00     
-174.000         -90.000            6.174e-02           5.341e-02             140.471           8.329e-03             262.948           3.153e+00     
-173.000         -90.000            5.009e-02           4.349e-02             142.814           6.606e-03             251.007           2.747e+00     
-172.000         -90.000            3.400e-02           2.859e-02             147.119           5.418e-03             235.992           2.298e+00     
-171.000         -90.000            1.875e-02           1.392e-02             156.511           4.837e-03             218.503           2.117e+00     
-170.000         -90.000            9.451e-03           4.600e-03             183.895           4.851e-03             200.202           6.982e+00     
-169.000         -90.000            9.387e-03           4.014e-03             247.975           5.373e-03             182.943           1.608e+00     
-168.000         -90.000            1.892e-02           1.266e-02             280.328           6.269e-03             167.638           1.722e+00     
-167.000         -90.000            3.538e-02           2.800e-02             291.393           7.382e-03             154.208           3.320e+00     
-166.000         -90.000            5.391e-02           4.535e-02             296.866           8.562e-03             142.163           6.242e+00     
-165.000         -90.000            6.907e-02           5.939e-02             300.586           9.688e-03             130.987           1.589e+01     
-164.000         -90.000            7.659e-02           6.591e-02             303.921           1.068e-02             120.277           4.539e+01     
-163.000         -90.000            7.468e-02           6.318e-02             307.724           1.150e-02             109.752           8.866e+00     
