Theta [deg.]  Phi   [deg.]  Abs(Dir.)[      ]   Abs(Theta)[      ]  Phase(Theta)[deg.]  Abs(Phi  )[      ]  Phase(Phi  )[deg.]  Ax.Ratio[      ]    
------------------------------------------------------------------------------------------------------------------------------------------------------
-180.000         -90.000            3.249e-03           1.099e-07             302.932           3.249e-03             142.913           3.162e+02     
-179.000         -90.000            8.145e-03           4.822e-03              88.457           3.323e-03             141.950           2.042e+00     
-178.000         -90.000            2.065e-02           1.711e-02              88.756           3.538e-03             139.173           3.123e+00     
-177.000         -90.000            3.505e-02           3.115e-02              89.202           3.899e-03             134.963           4.201e+00     
-176.000         -90.000            4.484e-02           4.045e-02              89.936           4.395e-03             129.785           5.051e+00     
-175.000         -90.000            4.574e-02           4.075e-02              91.178           4.996e-03             124.027           5.736e+00     
-174.000         -90.000            3.767e-02           3.203e-02              93.419           5.640e-03             117.921           6.606e+00     
-173.000         -90.000            2.470e-02           1.846e-02              98.043           6.240e-03             111.531           9.765e+00     
-172.000         -90.000            1.312e-02           6.422e-03             110.776           6.697e-03             104.787           1.912e+01     
-171.000         -90.000            8.402e-03           1.478e-03             169.500           6.923e-03              97.518           2.333e+00     
-170.000         -90.000            1.269e-02           5.825e-03             233.196           6.870e-03              89.467           3.066e+00     
-169.000         -90.000            2.384e-02           1.729e-02             247.406           6.549e-03              80.295           9.943e+00     
-168.000         -90.000            3.647e-02           3.044e-02             253.139           6.039e-03              69.592           4.346e+01     
-167.000         -90.000            4.458e-02           3.910e-02             256.974           5.478e-03              56.935           8.776e+00     
-166.000         -90.000            4.438e-02           3.935e-02             260.845           5.035e-03              42.103           4.832e+00     
-165.000         -90.000            3.615e-02           3.127e-02             266.283           4.878e-03              25.441           3.021e+00     
-164.000         -90.000            2.415e-02           1.902e-02             276.204           5.131e-03               8.111           1.927e+00     
-163.000         -90.000            1.473e-02           8.890e-03             299.014           5.841e-03             351.645           2.095e+00     
