Theta [deg.]  Phi   [deg.]  Abs(Dir.)[      ]   Abs(Theta)[      ]  Phase(Theta)[deg.]  Abs(Phi  )[      ]  Phase(Phi  )[deg.]  Ax.Ratio[      ]    
------------------------------------------------------------------------------------------------------------------------------------------------------
-180.000         -90.000            1.970e-02           4.556e-09              16.584           1.970e-02             153.829           3.162e+02     
-179.000         -90.000            2.378e-02           4.409e-03              31.688           1.938e-02             153.292           2.643e+00     
-178.000         -90.000            3.439e-02           1.596e-02              31.891           1.843e-02             151.670           1.733e+00     
-177.000         -90.000            4.726e-02           3.030e-02              32.260           1.696e-02             148.913           1.767e+00     
-176.000         -90.000            5.713e-02           4.205e-02              32.870           1.508e-02             144.927           1.929e+00     
-175.000         -90.000            5.977e-02           4.681e-02              33.857           1.296e-02             139.557           2.027e+00     
-174.000         -90.000            5.360e-02           4.283e-02              35.495           1.077e-02             132.556           2.020e+00     
-173.000         -90.000            4.040e-02           3.172e-02              38.409           8.682e-03             123.546           1.924e+00     
-172.000         -90.000            2.463e-02           1.775e-02              44.334           6.872e-03             112.009           1.877e+00     
-171.000         -90.000            1.190e-02           6.407e-03              60.192           5.489e-03              97.375           2.984e+00     
-170.000         -90.000            6.882e-03           2.229e-03             117.574           4.654e-03              79.473           3.145e+00     
-169.000         -90.000            1.164e-02           7.184e-03             171.448           4.453e-03              59.319           1.594e+00     
-168.000         -90.000            2.485e-02           1.992e-02             186.563           4.929e-03              39.222           4.421e+00     
-167.000         -90.000            4.231e-02           3.624e-02             192.925           6.073e-03              21.273           1.959e+01     
-166.000         -90.000            5.846e-02           5.064e-02             196.888           7.818e-03               6.134           1.568e+01     
-165.000         -90.000            6.839e-02           5.834e-02             200.330           1.005e-02             353.446           6.082e+00     
-164.000         -90.000            6.952e-02           5.693e-02             204.240           1.259e-02             342.589           3.632e+00     
-163.000         -90.000            6.251e-02           4.728e-02             209.692           1.523e-02             333.025           2.365e+00     
