Theta [deg.]  Phi   [deg.]  Abs(Dir.)[      ]   Abs(Theta)[      ]  Phase(Theta)[deg.]  Abs(Phi  )[      ]  Phase(Phi  )[deg.]  Ax.Ratio[      ]    
------------------------------------------------------------------------------------------------------------------------------------------------------
-180.000         -90.000            5.467e-03           8.108e-08              70.954           5.467e-03             327.757           2.667e+02     
-179.000         -90.000            9.955e-03           4.404e-03             216.435           5.551e-03             326.692           1.462e+00     
-178.000         -90.000            2.154e-02           1.574e-02             216.736           5.802e-03             323.653           1.801e+00     
-177.000         -90.000            3.525e-02           2.901e-02             217.195           6.234e-03             319.020           2.229e+00     
-176.000         -90.000            4.527e-02           3.841e-02             217.947           6.852e-03             313.296           2.383e+00     
-175.000         -90.000            4.749e-02           3.986e-02             219.205           7.631e-03             306.955           2.288e+00     
-174.000         -90.000            4.130e-02           3.280e-02             221.424           8.503e-03             300.331           2.027e+00     
-173.000         -90.000            2.981e-02           2.046e-02             225.813           9.356e-03             293.576           1.760e+00     
-172.000         -90.000            1.846e-02           8.403e-03             236.757           1.006e-02             286.679           2.162e+00     
-171.000         -90.000            1.258e-02           2.090e-03             278.917           1.049e-02             279.518           2.560e+02     
-170.000         -90.000            1.502e-02           4.472e-03             350.136           1.055e-02             271.889           1.615e+00     
-169.000         -90.000            2.495e-02           1.470e-02              10.042           1.024e-02             263.533           1.412e+00     
-168.000         -90.000            3.814e-02           2.851e-02              17.137           9.632e-03             254.152           2.311e+00     
-167.000         -90.000            4.890e-02           4.005e-02              21.166           8.855e-03             243.447           3.581e+00     
-166.000         -90.000            5.253e-02           4.443e-02              24.511           8.094e-03             231.207           5.999e+00     
-165.000         -90.000            4.740e-02           3.987e-02              28.422           7.532e-03             217.463           1.735e+01     
-164.000         -90.000            3.577e-02           2.846e-02              34.490           7.309e-03             202.668           1.202e+01     
-163.000         -90.000            2.287e-02           1.538e-02              46.551           7.490e-03             187.675           3.069e+00     
