Theta [deg.]  Phi   [deg.]  Abs(Dir.)[      ]   Abs(Theta)[      ]  Phase(Theta)[deg.]  Abs(Phi  )[      ]  Phase(Phi  )[deg.]  Ax.Ratio[      ]    
------------------------------------------------------------------------------------------------------------------------------------------------------
-180.000         -90.000            4.499e-03           2.166e-07              31.062           4.499e-03             192.234           3.162e+02     
-179.000         -90.000            9.516e-03           5.183e-03             341.073           4.334e-03             191.173           3.736e+00     
-178.000         -90.000            2.160e-02           1.772e-02             341.189           3.885e-03             188.045           5.585e+00     
-177.000         -90.000            3.378e-02           3.052e-02             341.660           3.266e-03             182.547           9.384e+00     
-176.000         -90.000            3.900e-02           3.638e-02             342.597           2.621e-03             174.236           1.975e+01     
-175.000         -90.000            3.415e-02           3.207e-02             344.404           2.079e-03             162.752           1.451e+02     
-174.000         -90.000            2.188e-02           2.016e-02             348.260           1.720e-03             148.399           1.084e+01     
-173.000         -90.000            9.085e-03           7.532e-03             359.007           1.554e-03             132.724           3.379e+00     
-172.000         -90.000            3.003e-03           1.479e-03              52.091           1.524e-03             117.958           1.544e+00     
-171.000         -90.000            7.083e-03           5.543e-03             123.589           1.540e-03             105.571           7.707e+00     
-170.000         -90.000            1.903e-02           1.752e-02             138.022           1.510e-03              95.820           5.320e+00     
-169.000         -90.000            3.208e-02           3.071e-02             143.096           1.373e-03              88.375           5.881e+00     
-168.000         -90.000            3.877e-02           3.765e-02             146.018           1.120e-03              82.915           6.542e+00     
-167.000         -90.000            3.514e-02           3.435e-02             148.723           7.889e-04              79.467           7.077e+00     
-166.000         -90.000            2.304e-02           2.259e-02             152.815           4.521e-04              78.899           7.368e+00     
-165.000         -90.000            9.224e-03           9.037e-03             162.786           1.875e-04              84.882           7.106e+00     
-164.000         -90.000            1.789e-03           1.736e-03             210.169           5.317e-05             115.050           5.739e+00     
-163.000         -90.000            5.860e-03           5.791e-03             287.716           6.895e-05             177.566           9.776e+00     
