Theta [deg.]  Phi   [deg.]  Abs(Dir.)[      ]   Abs(Theta)[      ]  Phase(Theta)[deg.]  Abs(Phi  )[      ]  Phase(Phi  )[deg.]  Ax.Ratio[      ]    
------------------------------------------------------------------------------------------------------------------------------------------------------
-180.000         -90.000            8.238e-05           2.019e-07             237.553           8.218e-05             223.110           8.108e+01     
-179.000         -90.000            3.964e-03           3.882e-03             338.814           8.242e-05             220.974           7.798e+00     
-178.000         -90.000            1.436e-02           1.428e-02             339.164           8.554e-05             214.471           1.574e+01     
-177.000         -90.000            2.789e-02           2.780e-02             339.503           9.507e-05             204.511           2.422e+01     
-176.000         -90.000            4.015e-02           4.003e-02             339.984           1.160e-04             192.848           3.430e+01     
-175.000         -90.000            4.717e-02           4.702e-02             340.725           1.535e-04             181.391           4.973e+01     
-174.000         -90.000            4.674e-02           4.653e-02             341.915           2.116e-04             171.253           9.178e+01     
-173.000         -90.000            3.911e-02           3.881e-02             343.917           2.924e-04             162.601           3.162e+02     
-172.000         -90.000            2.688e-02           2.649e-02             347.592           3.942e-04             155.138           3.855e+01     
-171.000         -90.000            1.422e-02           1.371e-02             355.413           5.133e-04             148.445           1.174e+01     
-170.000         -90.000            5.439e-03           4.795e-03              17.162           6.441e-04             142.166           3.492e+00     
-169.000         -90.000            3.628e-03           2.848e-03              77.542           7.802e-04             136.032           2.446e+00     
-168.000         -90.000            9.648e-03           8.732e-03             117.333           9.161e-04             129.855           1.567e+01     
-167.000         -90.000            2.186e-02           2.081e-02             130.099           1.048e-03             123.531           4.089e+01     
-166.000         -90.000            3.666e-02           3.548e-02             135.760           1.176e-03             117.009           1.760e+01     
-165.000         -90.000            4.961e-02           4.830e-02             139.138           1.302e-03             110.322           1.290e+01     
-164.000         -90.000            5.685e-02           5.542e-02             141.792           1.428e-03             103.568           1.023e+01     
-163.000         -90.000            5.633e-02           5.477e-02             144.543           1.559e-03              96.904           8.127e+00     
