Theta [deg.]  Phi   [deg.]  Abs(Dir.)[      ]   Abs(Theta)[      ]  Phase(Theta)[deg.]  Abs(Phi  )[      ]  Phase(Phi  )[deg.]  Ax.Ratio[      ]    
------------------------------------------------------------------------------------------------------------------------------------------------------
-180.000         -90.000            2.111e-04           4.734e-10             271.814           2.111e-04              36.380           3.162e+02     
-179.000         -90.000            3.260e-03           3.051e-03               7.735           2.093e-04              35.675           8.591e+00     
-178.000         -90.000            1.141e-02           1.121e-02               7.900           2.039e-04              33.519           1.740e+01     
-177.000         -90.000            2.202e-02           2.182e-02               8.191           1.961e-04              29.939           2.869e+01     
-176.000         -90.000            3.164e-02           3.145e-02               8.667           1.875e-04              25.011           4.627e+01     
-175.000         -90.000            3.719e-02           3.701e-02               9.428           1.797e-04              18.897           8.765e+01     
-174.000         -90.000            3.694e-02           3.677e-02              10.656           1.737e-04              11.859           3.162e+02     
-173.000         -90.000            3.108e-02           3.091e-02              12.710           1.701e-04               4.242           9.204e+01     
-172.000         -90.000            2.161e-02           2.144e-02              16.413           1.682e-04             356.399           3.321e+01     
-171.000         -90.000            1.168e-02           1.151e-02              24.041           1.669e-04             348.597           1.446e+01     
-170.000         -90.000            4.534e-03           4.370e-03              43.831           1.644e-04             340.954           5.840e+00     
-169.000         -90.000            2.457e-03           2.298e-03              97.457           1.588e-04             333.421           4.694e+00     
-168.000         -90.000            6.038e-03           5.889e-03             140.573           1.492e-04             325.783           7.093e+01     
-167.000         -90.000            1.402e-02           1.388e-02             155.427           1.353e-04             317.671           3.351e+01     
-166.000         -90.000            2.373e-02           2.361e-02             161.875           1.183e-04             308.540           2.580e+01     
-165.000         -90.000            3.200e-02           3.190e-02             165.580           1.006e-04             297.663           2.403e+01     
-164.000         -90.000            3.616e-02           3.607e-02             168.331           8.548e-05             284.247           2.285e+01     
-163.000         -90.000            3.492e-02           3.485e-02             171.024           7.688e-05             267.950           2.145e+01     
