Theta [deg.]  Phi   [deg.]  Abs(Dir.)[      ]   Abs(Theta)[      ]  Phase(Theta)[deg.]  Abs(Phi  )[      ]  Phase(Phi  )[deg.]  Ax.Ratio[      ]    
------------------------------------------------------------------------------------------------------------------------------------------------------
-180.000         -90.000            8.867e-03           1.443e-07              98.053           8.867e-03              96.760           3.162e+02     
-179.000         -90.000            1.351e-02           4.533e-03             212.273           8.978e-03              96.567           1.793e+00     
-178.000         -90.000            2.505e-02           1.576e-02             212.526           9.288e-03              96.035           1.738e+00     
-177.000         -90.000            3.745e-02           2.771e-02             212.812           9.748e-03              95.210           2.094e+00     
-176.000         -90.000            4.428e-02           3.401e-02             213.289           1.028e-02              94.150           2.272e+00     
-175.000         -90.000            4.204e-02           3.129e-02             214.185           1.075e-02              92.909           2.234e+00     
-174.000         -90.000            3.200e-02           2.097e-02             216.066           1.103e-02              91.528           2.072e+00     
-173.000         -90.000            1.958e-02           8.619e-03             221.114           1.096e-02              90.035           2.222e+00     
-172.000         -90.000            1.146e-02           1.027e-03             249.941           1.044e-02              88.451           1.094e+01     
-171.000         -90.000            1.211e-02           2.728e-03               3.908           9.387e-03              86.796           1.881e+00     
-170.000         -90.000            2.146e-02           1.361e-02              17.953           7.849e-03              85.098           1.645e+00     
-169.000         -90.000            3.490e-02           2.894e-02              21.984           5.959e-03              83.423           2.648e+00     
-168.000         -90.000            4.560e-02           4.165e-02              24.398           3.948e-03              81.922           3.963e+00     
-167.000         -90.000            4.804e-02           4.594e-02              26.797           2.106e-03              81.044           5.847e+00     
-166.000         -90.000            4.076e-02           4.003e-02              30.219           7.304e-04              82.619           9.409e+00     
-165.000         -90.000            2.714e-02           2.708e-02              36.367           6.263e-05             107.576           2.197e+01     
-164.000         -90.000            1.374e-02           1.350e-02              49.900           2.391e-04             227.332           1.707e+02     
-163.000         -90.000            7.151e-03           5.894e-03              84.883           1.257e-03             234.398           4.977e+00     
