Theta [deg.]  Phi   [deg.]  Abs(Dir.)[      ]   Abs(Theta)[      ]  Phase(Theta)[deg.]  Abs(Phi  )[      ]  Phase(Phi  )[deg.]  Ax.Ratio[      ]    
------------------------------------------------------------------------------------------------------------------------------------------------------
-180.000         -90.000            3.630e-04           2.023e-08             345.628           3.630e-04             351.258           3.162e+02     
-179.000         -90.000            3.407e-03           3.045e-03             146.090           3.627e-04             350.871           7.605e+00     
-178.000         -90.000            1.181e-02           1.145e-02             146.303           3.619e-04             349.758           1.451e+01     
-177.000         -90.000            2.349e-02           2.313e-02             146.650           3.601e-04             347.932           2.238e+01     
-176.000         -90.000            3.556e-02           3.521e-02             147.183           3.563e-04             345.406           3.208e+01     
-175.000         -90.000            4.507e-02           4.472e-02             147.975           3.495e-04             342.174           4.645e+01     
-174.000         -90.000            4.974e-02           4.940e-02             149.141           3.386e-04             338.200           7.723e+01     
-173.000         -90.000            4.853e-02           4.820e-02             150.882           3.228e-04             333.395           2.805e+02     
-172.000         -90.000            4.189e-02           4.159e-02             153.552           3.019e-04             327.603           1.140e+02     
-171.000         -90.000            3.164e-02           3.136e-02             157.875           2.770e-04             320.566           3.605e+01     
-170.000         -90.000            2.047e-02           2.022e-02             165.440           2.504e-04             311.937           1.642e+01     
-169.000         -90.000            1.129e-02           1.107e-02             180.123           2.261e-04             301.315           8.224e+00     
-168.000         -90.000            6.477e-03           6.268e-03             209.548           2.095e-04             288.434           5.581e+00     
-167.000         -90.000            7.286e-03           7.079e-03             248.454           2.073e-04             273.545           1.411e+01     
-166.000         -90.000            1.356e-02           1.334e-02             273.254           2.264e-04             257.752           2.917e+01     
-165.000         -90.000            2.380e-02           2.353e-02             285.705           2.734e-04             242.664           1.368e+01     
-164.000         -90.000            3.552e-02           3.517e-02             292.678           3.533e-04             229.469           1.120e+01     
-163.000         -90.000            4.591e-02           4.544e-02             297.293           4.687e-04             218.499           1.004e+01     
