Theta [deg.]  Phi   [deg.]  Abs(Dir.)[      ]   Abs(Theta)[      ]  Phase(Theta)[deg.]  Abs(Phi  )[      ]  Phase(Phi  )[deg.]  Ax.Ratio[      ]    
------------------------------------------------------------------------------------------------------------------------------------------------------
-180.000         -90.000            2.198e-02           1.044e-07             308.302           2.198e-02             219.999           3.162e+02     
-179.000         -90.000            2.533e-02           3.628e-03             306.590           2.170e-02             219.371           2.450e+00     
-178.000         -90.000            3.412e-02           1.324e-02             306.726           2.088e-02             217.496           1.256e+00     
-177.000         -90.000            4.528e-02           2.566e-02             306.991           1.962e-02             214.347           1.152e+00     
-176.000         -90.000            5.487e-02           3.679e-02             307.432           1.808e-02             209.888           1.462e+00     
-175.000         -90.000            5.939e-02           4.297e-02             308.141           1.642e-02             204.087           1.725e+00     
-174.000         -90.000            5.699e-02           4.218e-02             309.290           1.481e-02             196.944           1.953e+00     
-173.000         -90.000            4.808e-02           3.472e-02             311.235           1.337e-02             188.512           2.198e+00     
-172.000         -90.000            3.531e-02           2.314e-02             314.833           1.217e-02             178.918           2.646e+00     
-171.000         -90.000            2.262e-02           1.137e-02             322.690           1.126e-02             168.359           4.389e+00     
-170.000         -90.000            1.411e-02           3.493e-03             346.537           1.062e-02             157.063           1.401e+01     
-169.000         -90.000            1.263e-02           2.407e-03              55.882           1.022e-02             145.249           2.061e+00     
-168.000         -90.000            1.890e-02           8.857e-03              91.732           1.004e-02             133.091           2.656e+00     
-167.000         -90.000            3.127e-02           2.120e-02             102.522           1.007e-02             120.719           6.704e+00     
-166.000         -90.000            4.622e-02           3.592e-02             107.498           1.031e-02             108.260           1.806e+02     
-165.000         -90.000            5.948e-02           4.870e-02             110.644           1.078e-02              95.872           1.008e+01     
-164.000         -90.000            6.735e-02           5.583e-02             113.311           1.152e-02              83.757           5.191e+00     
-163.000         -90.000            6.785e-02           5.530e-02             116.216           1.255e-02              72.149           3.410e+00     
