Theta [deg.]  Phi   [deg.]  Abs(Dir.)[      ]   Abs(Theta)[      ]  Phase(Theta)[deg.]  Abs(Phi  )[      ]  Phase(Phi  )[deg.]  Ax.Ratio[      ]    
------------------------------------------------------------------------------------------------------------------------------------------------------
-180.000         -90.000            6.743e-02           2.376e-06              57.673           6.743e-02             130.070           1.767e+02     
-179.000         -90.000            6.944e-02           3.464e-03             121.501           6.597e-02             129.662           3.232e+01     
-178.000         -90.000            7.496e-02           1.281e-02             122.157           6.215e-02             128.430           2.427e+01     
-177.000         -90.000            8.201e-02           2.561e-02             122.354           5.640e-02             126.288           3.141e+01     
-176.000         -90.000            8.792e-02           3.856e-02             122.432           4.936e-02             123.085           1.770e+02     
-175.000         -90.000            9.010e-02           4.831e-02             122.471           4.179e-02             118.595           2.963e+01     
-174.000         -90.000            8.683e-02           5.235e-02             122.513           3.448e-02             112.522           1.169e+01     
-173.000         -90.000            7.776e-02           4.966e-02             122.602           2.810e-02             104.540           6.562e+00     
-172.000         -90.000            6.413e-02           4.094e-02             122.805           2.319e-02              94.439           4.139e+00     
-171.000         -90.000            4.849e-02           2.846e-02             123.266           2.003e-02              82.406           2.739e+00     
-170.000         -90.000            3.408e-02           1.541e-02             124.361           1.867e-02              69.283           1.933e+00     
-169.000         -90.000            2.404e-02           5.148e-03             127.644           1.889e-02              56.377           2.097e+00     
-168.000         -90.000            2.062e-02           2.908e-04             155.859           2.033e-02              44.810           8.975e+00     
-167.000         -90.000            2.454e-02           2.088e-03             286.430           2.245e-02              35.042           3.496e+00     
-166.000         -90.000            3.485e-02           1.012e-02             293.403           2.473e-02              26.988           1.571e+00     
-165.000         -90.000            4.905e-02           2.241e-02             295.333           2.664e-02              20.319           1.131e+00     
-164.000         -90.000            6.375e-02           3.598e-02             296.322           2.778e-02              14.673           1.275e+00     
-163.000         -90.000            7.542e-02           4.752e-02             297.101           2.790e-02               9.734           1.506e+00     
