Theta [deg.]  Phi   [deg.]  Abs(Dir.)[      ]   Abs(Theta)[      ]  Phase(Theta)[deg.]  Abs(Phi  )[      ]  Phase(Phi  )[deg.]  Ax.Ratio[      ]    
------------------------------------------------------------------------------------------------------------------------------------------------------
-180.000         -90.000            2.061e-04           1.973e-07             265.381           2.059e-04             270.952           3.162e+02     
-179.000         -90.000            2.291e-03           2.062e-03              23.643           2.290e-04             269.943           3.342e+00     
-178.000         -90.000            7.342e-03           7.037e-03              24.177           3.059e-04             267.245           5.429e+00     
-177.000         -90.000            1.236e-02           1.191e-02              24.834           4.505e-04             263.574           6.078e+00     
-176.000         -90.000            1.441e-02           1.374e-02              25.943           6.773e-04             259.353           5.710e+00     
-175.000         -90.000            1.239e-02           1.140e-02              28.052           9.913e-04             254.666           4.867e+00     
-174.000         -90.000            7.730e-03           6.348e-03              32.825           1.382e-03             249.443           4.134e+00     
-173.000         -90.000            3.570e-03           1.750e-03              48.933           1.820e-03             243.566           7.790e+00     
-172.000         -90.000            2.895e-03           6.288e-04             137.066           2.266e-03             236.921           1.948e+00     
-171.000         -90.000            6.738e-03           4.060e-03             178.433           2.678e-03             229.398           2.170e+00     
-170.000         -90.000            1.352e-02           1.049e-02             187.166           3.023e-03             220.908           4.075e+00     
-169.000         -90.000            1.989e-02           1.660e-02             191.319           3.289e-03             211.392           7.712e+00     
-168.000         -90.000            2.263e-02           1.915e-02             194.736           3.483e-03             200.857           2.595e+01     
-167.000         -90.000            2.050e-02           1.687e-02             199.101           3.627e-03             189.414           1.551e+01     
-166.000         -90.000            1.492e-02           1.117e-02             206.750           3.746e-03             177.297           4.466e+00     
-165.000         -90.000            9.196e-03           5.346e-03             224.061           3.851e-03             164.840           1.805e+00     
-164.000         -90.000            6.706e-03           2.777e-03             266.738           3.928e-03             152.391           1.605e+00     
-163.000         -90.000            8.979e-03           5.040e-03             311.946           3.939e-03             140.207           1.395e+01     
