Theta [deg.]  Phi   [deg.]  Abs(Dir.)[      ]   Abs(Theta)[      ]  Phase(Theta)[deg.]  Abs(Phi  )[      ]  Phase(Phi  )[deg.]  Ax.Ratio[      ]    
------------------------------------------------------------------------------------------------------------------------------------------------------
-180.000         -90.000            3.386e-02           2.903e-08              14.591           3.386e-02             177.525           3.162e+02     
-179.000         -90.000            3.868e-02           5.104e-03             121.535           3.357e-02             177.367           3.265e+00     
-178.000         -90.000            5.243e-02           1.970e-02             121.678           3.274e-02             176.894           2.019e+00     
-177.000         -90.000            7.305e-02           4.167e-02             121.820           3.138e-02             176.094           1.984e+00     
-176.000         -90.000            9.742e-02           6.784e-02             122.011           2.958e-02             174.947           2.288e+00     
-175.000         -90.000            1.219e-01           9.447e-02             122.277           2.742e-02             173.420           2.706e+00     
-174.000         -90.000            1.428e-01           1.178e-01             122.644           2.500e-02             171.474           3.181e+00     
-173.000         -90.000            1.568e-01           1.344e-01             123.152           2.243e-02             169.053           3.708e+00     
-172.000         -90.000            1.620e-01           1.422e-01             123.858           1.981e-02             166.089           4.309e+00     
-171.000         -90.000            1.574e-01           1.401e-01             124.845           1.727e-02             162.500           5.038e+00     
-170.000         -90.000            1.435e-01           1.286e-01             126.245           1.490e-02             158.190           6.030e+00     
-169.000         -90.000            1.223e-01           1.095e-01             128.281           1.277e-02             153.068           7.669e+00     
-168.000         -90.000            9.671e-02           8.576e-02             131.343           1.095e-02             147.057           1.157e+01     
-167.000         -90.000            7.036e-02           6.088e-02             136.179           9.478e-03             140.138           4.240e+01     
-166.000         -90.000            4.690e-02           3.854e-02             144.356           8.365e-03             132.393           1.252e+01     
-165.000         -90.000            2.962e-02           2.201e-02             159.284           7.606e-03             124.041           3.696e+00     
-164.000         -90.000            2.092e-02           1.375e-02             186.241           7.174e-03             115.440           1.609e+00     
-163.000         -90.000            2.202e-02           1.500e-02             220.192           7.024e-03             107.015           1.768e+00     
