Theta [deg.]  Phi   [deg.]  Abs(Dir.)[      ]   Abs(Theta)[      ]  Phase(Theta)[deg.]  Abs(Phi  )[      ]  Phase(Phi  )[deg.]  Ax.Ratio[      ]    
------------------------------------------------------------------------------------------------------------------------------------------------------
-180.000         -90.000            4.792e-02           4.603e-08             112.598           4.792e-02             270.944           3.162e+02     
-179.000         -90.000            5.157e-02           4.038e-03             191.247           4.753e-02             270.786           3.499e+00     
-178.000         -90.000            6.197e-02           1.560e-02             191.438           4.637e-02             270.309           1.789e+00     
-177.000         -90.000            7.764e-02           3.314e-02             191.620           4.450e-02             269.502           1.297e+00     
-176.000         -90.000            9.630e-02           5.429e-02             191.859           4.201e-02             268.345           1.311e+00     
-175.000         -90.000            1.153e-01           7.623e-02             192.181           3.902e-02             266.807           1.544e+00     
-174.000         -90.000            1.317e-01           9.606e-02             192.616           3.568e-02             264.848           1.811e+00     
-173.000         -90.000            1.433e-01           1.112e-01             193.202           3.213e-02             262.416           2.085e+00     
-172.000         -90.000            1.482e-01           1.197e-01             193.993           2.854e-02             259.447           2.366e+00     
-171.000         -90.000            1.456e-01           1.206e-01             195.068           2.504e-02             255.868           2.660e+00     
-170.000         -90.000            1.356e-01           1.138e-01             196.545           2.177e-02             251.598           2.989e+00     
-169.000         -90.000            1.195e-01           1.006e-01             198.615           1.884e-02             246.563           3.401e+00     
-168.000         -90.000            9.918e-02           8.284e-02             201.591           1.634e-02             240.715           4.024e+00     
-167.000         -90.000            7.733e-02           6.303e-02             206.031           1.431e-02             234.060           5.291e+00     
-166.000         -90.000            5.674e-02           4.397e-02             212.969           1.277e-02             226.699           9.989e+00     
-165.000         -90.000            4.005e-02           2.834e-02             224.386           1.170e-02             218.849           2.275e+01     
-164.000         -90.000            2.940e-02           1.832e-02             243.421           1.108e-02             210.829           3.549e+00     
-163.000         -90.000            2.617e-02           1.534e-02             270.645           1.083e-02             202.998           1.550e+00     
