Theta [deg.]  Phi   [deg.]  Abs(Dir.)[      ]   Abs(Theta)[      ]  Phase(Theta)[deg.]  Abs(Phi  )[      ]  Phase(Phi  )[deg.]  Ax.Ratio[      ]    
------------------------------------------------------------------------------------------------------------------------------------------------------
-180.000         -90.000            2.134e-02           3.239e-07             100.247           2.134e-02             236.094           3.162e+02     
-179.000         -90.000            2.846e-02           7.589e-03             103.088           2.087e-02             234.108           2.615e+00     
-178.000         -90.000            4.363e-02           2.388e-02             103.476           1.974e-02             228.578           1.940e+00     
-177.000         -90.000            5.403e-02           3.539e-02             104.294           1.864e-02             219.733           1.762e+00     
-176.000         -90.000            5.099e-02           3.269e-02             106.005           1.831e-02             208.430           1.440e+00     
-175.000         -90.000            3.736e-02           1.820e-02             110.167           1.916e-02             196.303           1.075e+00     
-174.000         -90.000            2.513e-02           4.072e-03             126.431           2.106e-02             185.069           2.824e+00     
-173.000         -90.000            2.531e-02           1.931e-03             233.624           2.338e-02             175.691           4.207e+00     
-172.000         -90.000            3.847e-02           1.324e-02             263.540           2.523e-02             168.313           1.399e+00     
-171.000         -90.000            5.410e-02           2.827e-02             270.049           2.583e-02             162.678           1.365e+00     
-170.000         -90.000            5.917e-02           3.437e-02             273.942           2.481e-02             158.462           1.632e+00     
-169.000         -90.000            4.882e-02           2.657e-02             278.819           2.225e-02             155.389           1.872e+00     
-168.000         -90.000            3.039e-02           1.172e-02             290.043           1.867e-02             153.233           2.620e+00     
-167.000         -90.000            1.747e-02           2.757e-03             338.168           1.472e-02             151.751           2.450e+01     
-166.000         -90.000            1.904e-02           8.053e-03              49.265           1.099e-02             150.583           1.288e+00     
-165.000         -90.000            3.230e-02           2.445e-02              65.777           7.858e-03             149.075           1.787e+00     
-164.000         -90.000            4.509e-02           3.963e-02              71.710           5.460e-03             146.126           2.829e+00     
-163.000         -90.000            4.566e-02           4.188e-02              75.627           3.780e-03             140.076           3.756e+00     
