Theta [deg.]  Phi   [deg.]  Abs(Dir.)[      ]   Abs(Theta)[      ]  Phase(Theta)[deg.]  Abs(Phi  )[      ]  Phase(Phi  )[deg.]  Ax.Ratio[      ]    
------------------------------------------------------------------------------------------------------------------------------------------------------
-180.000         -90.000            6.234e-03           2.324e-07             292.333           6.234e-03             146.061           2.950e+02     
-179.000         -90.000            1.156e-02           5.686e-03              22.511           5.876e-03             145.196           1.830e+00     
-178.000         -90.000            2.494e-02           2.001e-02              22.915           4.933e-03             142.732           2.492e+00     
-177.000         -90.000            3.974e-02           3.610e-02              23.396           3.643e-03             137.986           3.528e+00     
-176.000         -90.000            4.865e-02           4.631e-02              24.153           2.331e-03             129.288           4.634e+00     
-175.000         -90.000            4.724e-02           4.592e-02              25.429           1.318e-03             112.794           5.908e+00     
-174.000         -90.000            3.617e-02           3.532e-02              27.748           8.412e-04              83.005           7.948e+00     
-173.000         -90.000            2.074e-02           1.975e-02              32.609           9.910e-04              48.129           1.746e+01     
-172.000         -90.000            8.255e-03           6.562e-03              46.358           1.693e-03              25.387           6.773e+00     
-171.000         -90.000            4.378e-03           1.651e-03             108.638           2.728e-03              12.883           1.311e+00     
-170.000         -90.000            1.041e-02           6.617e-03             167.444           3.794e-03               5.388           6.593e+00     
-169.000         -90.000            2.276e-02           1.817e-02             180.773           4.590e-03               0.357           3.162e+02     
-168.000         -90.000            3.482e-02           2.992e-02             186.171           4.893e-03             356.667           1.737e+01     
-167.000         -90.000            4.030e-02           3.569e-02             189.723           4.614e-03             353.804           1.136e+01     
-166.000         -90.000            3.636e-02           3.253e-02             193.358           3.822e-03             351.551           8.662e+00     
-165.000         -90.000            2.495e-02           2.224e-02             198.900           2.712e-03             349.901           6.472e+00     
-164.000         -90.000            1.189e-02           1.034e-02             211.054           1.556e-03             349.163           4.204e+00     
-163.000         -90.000            4.012e-03           3.393e-03             249.889           6.191e-04             350.700           2.402e+00     
