Theta [deg.]  Phi   [deg.]  Abs(Dir.)[      ]   Abs(Theta)[      ]  Phase(Theta)[deg.]  Abs(Phi  )[      ]  Phase(Phi  )[deg.]  Ax.Ratio[      ]    
------------------------------------------------------------------------------------------------------------------------------------------------------
-180.000         -90.000            1.598e-02           5.621e-07             342.031           1.598e-02             123.549           2.710e+02     
-179.000         -90.000            2.732e-02           1.132e-02             122.659           1.600e-02             120.412           5.177e+01     
-178.000         -90.000            5.120e-02           3.495e-02             122.939           1.625e-02             111.934           1.116e+01     
-177.000         -90.000            6.669e-02           4.894e-02             123.346           1.775e-02              99.799           5.481e+00     
-176.000         -90.000            6.178e-02           4.041e-02             124.237           2.137e-02              86.961           3.154e+00     
-175.000         -90.000            4.451e-02           1.740e-02             126.822           2.710e-02              75.930           2.183e+00     
-174.000         -90.000            3.500e-02           1.137e-03             147.551           3.387e-02              67.488           5.546e+00     
-173.000         -90.000            4.599e-02           6.236e-03             289.493           3.975e-02              61.280           3.643e+00     
-172.000         -90.000            7.027e-02           2.743e-02             296.124           4.284e-02              56.669           1.835e+00     
-171.000         -90.000            8.688e-02           4.490e-02             298.745           4.198e-02              53.086           1.552e+00     
-170.000         -90.000            8.012e-02           4.285e-02             301.782           3.727e-02              50.049           1.394e+00     
-169.000         -90.000            5.374e-02           2.381e-02             308.266           2.993e-02              47.076           1.212e+00     
-168.000         -90.000            2.743e-02           5.698e-03             332.847           2.173e-02              43.553           2.146e+00     
-167.000         -90.000            1.933e-02           4.974e-03              63.251           1.436e-02              38.505           5.275e+00     
-166.000         -90.000            3.053e-02           2.167e-02              91.188           8.865e-03              30.333           2.030e+00     
-165.000         -90.000            4.549e-02           3.991e-02              99.135           5.582e-03              17.006           2.708e+00     
-164.000         -90.000            4.719e-02           4.289e-02             104.483           4.296e-03             358.643           3.312e+00     
-163.000         -90.000            3.277e-02           2.823e-02             112.230           4.539e-03             340.751           3.585e+00     
