Theta [deg.]  Phi   [deg.]  Abs(Dir.)[      ]   Abs(Theta)[      ]  Phase(Theta)[deg.]  Abs(Phi  )[      ]  Phase(Phi  )[deg.]  Ax.Ratio[      ]    
------------------------------------------------------------------------------------------------------------------------------------------------------
-180.000         -90.000            2.098e-02           3.048e-07               7.219           2.098e-02             141.669           3.162e+02     
-179.000         -90.000            2.881e-02           8.209e-03              36.716           2.060e-02             139.531           1.675e+00     
-178.000         -90.000            4.543e-02           2.572e-02              37.160           1.971e-02             133.614           1.191e+00     
-177.000         -90.000            5.678e-02           3.775e-02              37.958           1.903e-02             124.305           1.417e+00     
-176.000         -90.000            5.357e-02           3.423e-02              39.592           1.933e-02             112.743           1.516e+00     
-175.000         -90.000            3.933e-02           1.835e-02              43.593           2.097e-02             100.775           1.842e+00     
-174.000         -90.000            2.731e-02           3.610e-03              60.278           2.370e-02              90.057           5.772e+00     
-173.000         -90.000            2.892e-02           2.206e-03             175.664           2.671e-02              81.325           3.492e+00     
-172.000         -90.000            4.373e-02           1.478e-02             200.336           2.895e-02              74.543           2.139e+00     
-171.000         -90.000            5.968e-02           3.016e-02             206.165           2.952e-02              69.377           2.525e+00     
-170.000         -90.000            6.317e-02           3.513e-02             210.146           2.804e-02              65.472           3.165e+00     
-169.000         -90.000            5.049e-02           2.576e-02             215.763           2.474e-02              62.529           4.204e+00     
-168.000         -90.000            3.082e-02           1.055e-02             229.690           2.027e-02              60.287           1.137e+01     
-167.000         -90.000            1.856e-02           3.066e-03             286.638           1.550e-02              58.434           3.310e+00     
-166.000         -90.000            2.149e-02           1.036e-02             346.221           1.113e-02              56.494           1.424e+00     
-165.000         -90.000            3.461e-02           2.701e-02               0.936           7.597e-03              53.637           2.661e+00     
-164.000         -90.000            4.467e-02           3.962e-02               7.009           5.050e-03              48.479           4.549e+00     
-163.000         -90.000            4.135e-02           3.791e-02              11.693           3.443e-03              39.149           7.721e+00     
