Theta [deg.]  Phi   [deg.]  Abs(Dir.)[      ]   Abs(Theta)[      ]  Phase(Theta)[deg.]  Abs(Phi  )[      ]  Phase(Phi  )[deg.]  Ax.Ratio[      ]    
------------------------------------------------------------------------------------------------------------------------------------------------------
-180.000         -90.000            1.788e-02           4.909e-07              61.501           1.788e-02             257.780           3.162e+02     
-179.000         -90.000            2.431e-02           7.251e-03             272.513           1.706e-02             256.991           8.044e+00     
-178.000         -90.000            3.936e-02           2.445e-02             272.355           1.491e-02             254.698           6.646e+00     
-177.000         -90.000            5.232e-02           4.036e-02             272.276           1.196e-02             250.538           6.270e+00     
-176.000         -90.000            5.345e-02           4.456e-02             272.268           8.888e-03             243.847           5.459e+00     
-175.000         -90.000            4.056e-02           3.425e-02             272.447           6.306e-03             233.697           4.169e+00     
-174.000         -90.000            2.074e-02           1.616e-02             273.266           4.580e-03             219.465           2.603e+00     
-173.000         -90.000            5.973e-03           2.203e-03             278.609           3.770e-03             202.416           1.440e+00     
-172.000         -90.000            5.604e-03           1.937e-03              80.011           3.667e-03             186.322           1.543e+00     
-171.000         -90.000            2.031e-02           1.638e-02              85.984           3.924e-03             174.385           2.045e+00     
-170.000         -90.000            4.153e-02           3.733e-02              86.933           4.203e-03             167.186           3.035e+00     
-169.000         -90.000            5.669e-02           5.241e-02              87.344           4.286e-03             164.048           3.610e+00     
-168.000         -90.000            5.681e-02           5.269e-02              87.885           4.121e-03             164.288           3.696e+00     
-167.000         -90.000            4.192e-02           3.813e-02              89.162           3.788e-03             167.443           3.255e+00     
-166.000         -90.000            2.089e-02           1.747e-02              92.848           3.423e-03             173.036           2.309e+00     
-165.000         -90.000            5.992e-03           2.853e-03             110.918           3.139e-03             180.220           1.452e+00     
-164.000         -90.000            5.506e-03           2.532e-03             229.441           2.974e-03             187.685           2.633e+00     
-163.000         -90.000            1.901e-02           1.613e-02             249.472           2.885e-03             194.055           3.059e+00     
