Theta [deg.]  Phi   [deg.]  Abs(Dir.)[      ]   Abs(Theta)[      ]  Phase(Theta)[deg.]  Abs(Phi  )[      ]  Phase(Phi  )[deg.]  Ax.Ratio[      ]    
------------------------------------------------------------------------------------------------------------------------------------------------------
-180.000         -90.000            1.594e-02           4.733e-07             143.799           1.594e-02             347.371           3.162e+02     
-179.000         -90.000            2.241e-02           7.225e-03             339.857           1.518e-02             346.678           1.796e+01     
-178.000         -90.000            3.779e-02           2.460e-02             339.756           1.319e-02             344.676           2.442e+01     
-177.000         -90.000            5.175e-02           4.131e-02             339.690           1.044e-02             341.004           1.087e+02     
-176.000         -90.000            5.449e-02           4.694e-02             339.669           7.551e-03             334.943           3.511e+01     
-175.000         -90.000            4.308e-02           3.798e-02             339.776           5.095e-03             325.314           1.232e+01     
-174.000         -90.000            2.342e-02           1.999e-02             340.307           3.429e-03             310.779           5.560e+00     
-173.000         -90.000            6.824e-03           4.192e-03             343.109           2.632e-03             291.799           2.172e+00     
-172.000         -90.000            3.122e-03           5.900e-04             142.429           2.532e-03             272.931           3.029e+00     
-171.000         -90.000            1.467e-02           1.186e-02             153.903           2.812e-03             259.047           2.171e+00     
-170.000         -90.000            3.488e-02           3.174e-02             155.148           3.146e-03             251.025           3.197e+00     
-169.000         -90.000            5.212e-02           4.881e-02             155.744           3.310e-03             247.797           3.843e+00     
-168.000         -90.000            5.656e-02           5.332e-02             156.498           3.233e-03             248.447           4.064e+00     
-167.000         -90.000            4.586e-02           4.287e-02             158.017           2.985e-03             252.516           3.803e+00     
-166.000         -90.000            2.637e-02           2.367e-02             161.720           2.703e-03             259.633           2.995e+00     
-165.000         -90.000            9.253e-03           6.739e-03             174.311           2.514e-03             268.932           1.649e+00     
-164.000         -90.000            3.912e-03           1.439e-03             256.585           2.473e-03             278.770           5.304e+00     
-163.000         -90.000            1.272e-02           1.017e-02             307.927           2.549e-03             287.328           6.956e+00     
