Theta [deg.]  Phi   [deg.]  Abs(Dir.)[      ]   Abs(Theta)[      ]  Phase(Theta)[deg.]  Abs(Phi  )[      ]  Phase(Phi  )[deg.]  Ax.Ratio[      ]    
------------------------------------------------------------------------------------------------------------------------------------------------------
-180.000         -90.000            1.927e-02           3.422e-07             174.940           1.927e-02             312.789           3.162e+02     
-179.000         -90.000            2.889e-02           9.815e-03             261.381           1.907e-02             310.262           2.383e+00     
-178.000         -90.000            4.922e-02           3.054e-02             261.830           1.868e-02             303.337           2.745e+00     
-177.000         -90.000            6.278e-02           4.382e-02             262.501           1.896e-02             292.838           4.067e+00     
-176.000         -90.000            5.875e-02           3.804e-02             263.856           2.070e-02             280.624           7.115e+00     
-175.000         -90.000            4.266e-02           1.848e-02             267.333           2.417e-02             268.974           7.043e+01     
-174.000         -90.000            3.120e-02           2.415e-03             285.574           2.878e-02             259.295           8.331e+00     
-173.000         -90.000            3.688e-02           3.621e-03              57.025           3.325e-02             251.818           1.308e+01     
-172.000         -90.000            5.649e-02           2.037e-02              70.944           3.612e-02             246.177           2.502e+01     
-171.000         -90.000            7.368e-02           3.739e-02              75.157           3.630e-02             241.893           8.602e+00     
-170.000         -90.000            7.320e-02           3.970e-02              78.908           3.351e-02             238.540           5.588e+00     
-169.000         -90.000            5.418e-02           2.584e-02              85.375           2.834e-02             235.741           3.785e+00     
-168.000         -90.000            3.070e-02           8.733e-03             104.174           2.197e-02             233.100           2.439e+00     
-167.000         -90.000            1.951e-02           3.870e-03             176.632           1.564e-02             230.061           2.760e+00     
-166.000         -90.000            2.593e-02           1.560e-02             220.158           1.033e-02             225.729           2.099e+01     
-165.000         -90.000            4.003e-02           3.351e-02             231.671           6.512e-03             218.620           1.191e+01     
-164.000         -90.000            4.612e-02           4.189e-02             237.739           4.237e-03             206.854           6.593e+00     
-163.000         -90.000            3.680e-02           3.348e-02             244.151           3.313e-03             190.182           4.075e+00     
