Theta [deg.]  Phi   [deg.]  Abs(Dir.)[      ]   Abs(Theta)[      ]  Phase(Theta)[deg.]  Abs(Phi  )[      ]  Phase(Phi  )[deg.]  Ax.Ratio[      ]    
------------------------------------------------------------------------------------------------------------------------------------------------------
-180.000         -90.000            2.147e-02           4.584e-07              89.893           2.147e-02             251.888           3.162e+02     
-179.000         -90.000            2.756e-02           6.897e-03               5.585           2.067e-02             250.522           2.064e+00     
-178.000         -90.000            4.092e-02           2.231e-02               5.551           1.861e-02             246.582           1.711e+00     
-177.000         -90.000            5.041e-02           3.445e-02               5.923           1.596e-02             239.819           2.208e+00     
-176.000         -90.000            4.750e-02           3.403e-02               6.870           1.348e-02             230.073           2.895e+00     
-175.000         -90.000            3.310e-02           2.133e-02               9.272           1.176e-02             217.775           4.136e+00     
-174.000         -90.000            1.726e-02           6.215e-03              17.854           1.104e-02             204.368           1.831e+01     
-173.000         -90.000            1.187e-02           7.200e-04             113.920           1.115e-02             191.826           4.036e+00     
-172.000         -90.000            2.165e-02           1.001e-02             165.672           1.163e-02             181.513           7.209e+00     
-171.000         -90.000            4.031e-02           2.830e-02             171.655           1.201e-02             173.781           5.892e+01     
-170.000         -90.000            5.476e-02           4.285e-02             173.776           1.191e-02             168.415           2.590e+01     
-169.000         -90.000            5.446e-02           4.324e-02             175.163           1.122e-02             165.079           1.405e+01     
-168.000         -90.000            3.904e-02           2.899e-02             177.108           1.005e-02             163.494           9.613e+00     
-167.000         -90.000            1.885e-02           1.022e-02             182.647           8.628e-03             163.423           5.927e+00     
-166.000         -90.000            7.807e-03           6.064e-04             239.620           7.201e-03             164.554           3.588e+00     
-165.000         -90.000            1.377e-02           7.841e-03             334.092           5.929e-03             166.377           9.385e+00     
-164.000         -90.000            3.302e-02           2.816e-02             341.469           4.862e-03             168.105           2.438e+01     
-163.000         -90.000            5.275e-02           4.878e-02             343.987           3.966e-03             168.721           4.592e+01     
