Theta [deg.]  Phi   [deg.]  Abs(Dir.)[      ]   Abs(Theta)[      ]  Phase(Theta)[deg.]  Abs(Phi  )[      ]  Phase(Phi  )[deg.]  Ax.Ratio[      ]    
------------------------------------------------------------------------------------------------------------------------------------------------------
-180.000         -90.000            9.548e-03           3.675e-07              33.050           9.547e-03             251.654           2.583e+02     
-179.000         -90.000            1.570e-02           6.671e-03             182.051           9.029e-03             251.073           1.500e+00     
-178.000         -90.000            3.089e-02           2.323e-02             182.229           7.663e-03             249.451           2.015e+00     
-177.000         -90.000            4.652e-02           4.074e-02             182.408           5.777e-03             246.377           3.046e+00     
-176.000         -90.000            5.361e-02           4.980e-02             182.704           3.802e-03             240.892           4.355e+00     
-175.000         -90.000            4.780e-02           4.565e-02             183.263           2.151e-03             230.760           6.387e+00     
-174.000         -90.000            3.173e-02           3.062e-02             184.433           1.107e-03             211.087           1.206e+01     
-173.000         -90.000            1.356e-02           1.280e-02             187.493           7.574e-04             178.116           2.668e+01     
-172.000         -90.000            2.489e-03           1.501e-03             204.046           9.873e-04             147.256           1.923e+00     
-171.000         -90.000            3.824e-03           2.286e-03             340.050           1.539e-03             130.243           3.842e+00     
-170.000         -90.000            1.618e-02           1.407e-02             352.395           2.107e-03             122.052           3.580e+00     
-169.000         -90.000            3.240e-02           2.996e-02             355.667           2.439e-03             118.539           4.279e+00     
-168.000         -90.000            4.355e-02           4.114e-02             357.869           2.413e-03             118.158           4.856e+00     
-167.000         -90.000            4.377e-02           4.171e-02               0.457           2.059e-03             120.796           5.282e+00     
-166.000         -90.000            3.329e-02           3.176e-02               4.726           1.533e-03             127.496           5.492e+00     
-165.000         -90.000            1.818e-02           1.713e-02              13.758           1.047e-03             140.661           5.175e+00     
-164.000         -90.000            6.866e-03           6.079e-03              39.482           7.877e-04             162.478           3.452e+00     
-163.000         -90.000            5.639e-03           4.784e-03             101.555           8.542e-04             187.639           2.375e+00     
