Theta [deg.]  Phi   [deg.]  Abs(Dir.)[      ]   Abs(Theta)[      ]  Phase(Theta)[deg.]  Abs(Phi  )[      ]  Phase(Phi  )[deg.]  Ax.Ratio[      ]    
------------------------------------------------------------------------------------------------------------------------------------------------------
-180.000         -90.000            2.126e-02           2.498e-07             137.562           2.126e-02             297.692           3.162e+02     
-179.000         -90.000            2.494e-02           4.291e-03              60.634           2.065e-02             296.836           2.835e+00     
-178.000         -90.000            3.436e-02           1.541e-02              60.546           1.895e-02             294.366           1.988e+00     
-177.000         -90.000            4.538e-02           2.889e-02              60.715           1.649e-02             290.052           2.307e+00     
-176.000         -90.000            5.302e-02           3.928e-02              61.096           1.375e-02             283.510           3.056e+00     
-175.000         -90.000            5.358e-02           4.239e-02              61.787           1.120e-02             274.267           4.350e+00     
-174.000         -90.000            4.621e-02           3.696e-02              63.033           9.259e-03             262.025           7.544e+00     
-173.000         -90.000            3.339e-02           2.519e-02              65.460           8.198e-03             247.240           7.478e+01     
-172.000         -90.000            2.000e-02           1.193e-02              71.142           8.076e-03             231.527           5.902e+00     
-171.000         -90.000            1.151e-02           2.750e-03              92.095           8.761e-03             216.915           2.448e+00     
-170.000         -90.000            1.176e-02           1.793e-03             184.619           9.965e-03             204.551           8.035e+00     
-169.000         -90.000            2.142e-02           1.010e-02             215.754           1.132e-02             194.482           5.334e+00     
-168.000         -90.000            3.764e-02           2.518e-02             223.076           1.245e-02             186.234           3.235e+00     
-167.000         -90.000            5.497e-02           4.190e-02             226.275           1.307e-02             179.270           2.862e+00     
-166.000         -90.000            6.738e-02           5.438e-02             228.282           1.300e-02             173.145           2.721e+00     
-165.000         -90.000            7.040e-02           5.819e-02             230.036           1.220e-02             167.514           2.592e+00     
-164.000         -90.000            6.278e-02           5.200e-02             232.140           1.078e-02             162.095           2.406e+00     
-163.000         -90.000            4.698e-02           3.806e-02             235.397           8.919e-03             156.629           2.130e+00     
