Theta [deg.]  Phi   [deg.]  Abs(Dir.)[      ]   Abs(Theta)[      ]  Phase(Theta)[deg.]  Abs(Phi  )[      ]  Phase(Phi  )[deg.]  Ax.Ratio[      ]    
------------------------------------------------------------------------------------------------------------------------------------------------------
-180.000         -90.000            8.013e-02           1.215e-06              57.800           8.013e-02             235.871           3.162e+02     
-179.000         -90.000            8.371e-02           5.433e-03             163.481           7.827e-02             235.460           4.020e+00     
-178.000         -90.000            9.347e-02           2.044e-02             163.882           7.304e-02             234.258           2.090e+00     
-177.000         -90.000            1.063e-01           4.122e-02             164.006           6.506e-02             232.160           1.577e+00     
-176.000         -90.000            1.178e-01           6.253e-02             164.063           5.530e-02             228.965           1.580e+00     
-175.000         -90.000            1.239e-01           7.904e-02             164.107           4.490e-02             224.355           1.858e+00     
-174.000         -90.000            1.217e-01           8.665e-02             164.172           3.501e-02             217.841           2.309e+00     
-173.000         -90.000            1.102e-01           8.356e-02             164.300           2.664e-02             208.780           3.000e+00     
-172.000         -90.000            9.117e-02           7.065e-02             164.562           2.052e-02             196.562           4.285e+00     
-171.000         -90.000            6.823e-02           5.119e-02             165.094           1.704e-02             181.274           8.168e+00     
-170.000         -90.000            4.620e-02           3.002e-02             166.240           1.618e-02             164.539           7.060e+01     
-169.000         -90.000            2.982e-02           1.222e-02             169.183           1.759e-02             148.966           5.709e+00     
-168.000         -90.000            2.256e-02           1.901e-03             182.537           2.066e-02             136.222           4.768e+00     
-167.000         -90.000            2.573e-02           1.152e-03             311.666           2.458e-02             126.416           5.282e+01     
-166.000         -90.000            3.817e-02           9.620e-03             330.758           2.854e-02             118.931           4.125e+00     
-165.000         -90.000            5.650e-02           2.468e-02             334.370           3.182e-02             113.099           2.684e+00     
-164.000         -90.000            7.603e-02           4.217e-02             335.892           3.386e-02             108.398           2.293e+00     
-163.000         -90.000            9.184e-02           5.750e-02             336.848           3.434e-02             104.464           2.142e+00     
