Theta [deg.]  Phi   [deg.]  Abs(Dir.)[      ]   Abs(Theta)[      ]  Phase(Theta)[deg.]  Abs(Phi  )[      ]  Phase(Phi  )[deg.]  Ax.Ratio[      ]    
------------------------------------------------------------------------------------------------------------------------------------------------------
-180.000         -90.000            1.792e-03           6.088e-06              50.986           1.785e-03             207.186           4.256e+01     
-179.000         -90.000            6.371e-03           4.463e-03             345.889           1.908e-03             190.511           5.042e+00     
-178.000         -90.000            1.567e-02           1.199e-02             344.690           3.680e-03             157.235           1.813e+01     
-177.000         -90.000            2.310e-02           1.295e-02             343.952           1.015e-02             136.438           4.119e+00     
-176.000         -90.000            2.876e-02           5.925e-03             343.208           2.283e-02             126.295           3.857e+00     
-175.000         -90.000            3.962e-02           9.727e-05             342.464           3.952e-02             120.415           3.014e+01     
-174.000         -90.000            5.913e-02           4.402e-03             161.185           5.473e-02             116.184           5.195e+00     
-173.000         -90.000            7.865e-02           1.609e-02             159.766           6.256e-02             112.528           3.048e+00     
-172.000         -90.000            8.281e-02           2.283e-02             157.703           5.998e-02             108.875           2.586e+00     
-171.000         -90.000            6.514e-02           1.677e-02             154.018           4.836e-02             104.728           2.638e+00     
-170.000         -90.000            3.708e-02           4.588e-03             142.688           3.249e-02              99.325           4.184e+00     
-169.000         -90.000            1.900e-02           1.139e-03              24.592           1.786e-02              90.995           4.368e+00     
-168.000         -90.000            2.122e-02           1.308e-02             351.775           8.132e-03              75.583           1.299e+00     
-167.000         -90.000            3.456e-02           3.051e-02             346.695           4.050e-03              46.046           3.312e+00     
-166.000         -90.000            4.076e-02           3.659e-02             345.258           4.167e-03              12.719           7.015e+00     
-165.000         -90.000            3.163e-02           2.527e-02             346.421           6.357e-03             356.472           1.423e+01     
-164.000         -90.000            1.689e-02           7.794e-03             354.760           9.093e-03             352.908           6.207e+01     
-163.000         -90.000            1.270e-02           9.571e-04              82.048           1.174e-02             355.212           3.509e+00     
