Theta [deg.]  Phi   [deg.]  Abs(Dir.)[      ]   Abs(Theta)[      ]  Phase(Theta)[deg.]  Abs(Phi  )[      ]  Phase(Phi  )[deg.]  Ax.Ratio[      ]    
------------------------------------------------------------------------------------------------------------------------------------------------------
-180.000         -90.000            1.782e-02           4.222e-07              78.003           1.782e-02             218.246           3.162e+02     
-179.000         -90.000            2.835e-02           1.063e-02             192.400           1.772e-02             215.450           5.079e+00     
-178.000         -90.000            5.058e-02           3.295e-02             192.791           1.763e-02             207.830           7.962e+00     
-177.000         -90.000            6.520e-02           4.673e-02             193.354           1.847e-02             196.561           3.964e+01     
-176.000         -90.000            6.068e-02           3.960e-02             194.515           2.108e-02             183.998           1.142e+01     
-175.000         -90.000            4.379e-02           1.816e-02             197.635           2.563e-02             172.593           4.577e+00     
-174.000         -90.000            3.306e-02           1.769e-03             217.168           3.129e-02             163.499           5.328e+00     
-173.000         -90.000            4.130e-02           4.811e-03             354.168           3.649e-02             156.658           1.026e+01     
-172.000         -90.000            6.346e-02           2.393e-02               4.097           3.953e-02             151.554           3.554e+00     
-171.000         -90.000            8.077e-02           4.149e-02               7.538           3.928e-02             147.653           2.757e+00     
-170.000         -90.000            7.747e-02           4.186e-02              11.013           3.561e-02             144.498           2.338e+00     
-169.000         -90.000            5.472e-02           2.534e-02              17.622           2.938e-02             141.661           1.891e+00     
-168.000         -90.000            2.947e-02           7.414e-03              39.100           2.206e-02             138.647           1.773e+00     
-167.000         -90.000            1.950e-02           4.374e-03             120.245           1.513e-02             134.715           9.490e+00     
-166.000         -90.000            2.831e-02           1.868e-02             156.090           9.624e-03             128.643           4.350e+00     
-165.000         -90.000            4.313e-02           3.716e-02             165.870           5.975e-03             118.581           3.667e+00     
-164.000         -90.000            4.727e-02           4.315e-02             171.670           4.123e-03             103.107           3.524e+00     
-163.000         -90.000            3.526e-02           3.150e-02             178.798           3.750e-03              84.751           2.908e+00     
