Theta [deg.]  Phi   [deg.]  Abs(Dir.)[      ]   Abs(Theta)[      ]  Phase(Theta)[deg.]  Abs(Phi  )[      ]  Phase(Phi  )[deg.]  Ax.Ratio[      ]    
------------------------------------------------------------------------------------------------------------------------------------------------------
-180.000         -90.000            7.912e-03           3.215e-07             117.856           7.911e-03             337.793           2.444e+02     
-179.000         -90.000            1.382e-02           6.355e-03             249.180           7.463e-03             337.167           1.092e+00     
-178.000         -90.000            2.852e-02           2.224e-02             249.454           6.282e-03             335.421           1.890e+00     
-177.000         -90.000            4.409e-02           3.943e-02             249.743           4.656e-03             332.082           2.943e+00     
-176.000         -90.000            5.210e-02           4.913e-02             250.202           2.970e-03             325.989           4.212e+00     
-175.000         -90.000            4.805e-02           4.646e-02             251.008           1.594e-03             314.233           6.090e+00     
-174.000         -90.000            3.375e-02           3.296e-02             252.577           7.886e-04             290.040           1.079e+01     
-173.000         -90.000            1.625e-02           1.562e-02             256.265           6.378e-04             251.144           5.768e+01     
-172.000         -90.000            4.145e-03           3.106e-03             270.614           1.040e-03             221.318           2.668e+00     
-171.000         -90.000            2.999e-03           1.251e-03              24.666           1.748e-03             206.568           6.106e+01     
-170.000         -90.000            1.259e-02           1.013e-02              53.259           2.459e-03             199.222           4.273e+00     
-169.000         -90.000            2.719e-02           2.429e-02              59.002           2.903e-03             195.456           4.477e+00     
-168.000         -90.000            3.872e-02           3.580e-02              62.077           2.926e-03             193.890           4.871e+00     
-167.000         -90.000            4.105e-02           3.852e-02              65.025           2.529e-03             194.268           5.177e+00     
-166.000         -90.000            3.318e-02           3.133e-02              69.269           1.853e-03             197.160           5.330e+00     
-165.000         -90.000            1.963e-02           1.851e-02              77.453           1.127e-03             204.590           5.201e+00     
-164.000         -90.000            7.958e-03           7.374e-03              98.609           5.838e-04             222.005           4.365e+00     
-163.000         -90.000            4.739e-03           4.351e-03             154.197           3.888e-04             256.545           3.440e+00     
