Theta [deg.]  Phi   [deg.]  Abs(Dir.)[      ]   Abs(Theta)[      ]  Phase(Theta)[deg.]  Abs(Phi  )[      ]  Phase(Phi  )[deg.]  Ax.Ratio[      ]    
------------------------------------------------------------------------------------------------------------------------------------------------------
-180.000         -90.000            9.213e-03           1.553e-06              60.820           9.211e-03             198.842           1.152e+02     
-179.000         -90.000            2.121e-02           1.162e-02             269.640           9.595e-03             193.986           1.311e+00     
-178.000         -90.000            4.615e-02           3.505e-02             269.259           1.110e-02             181.689           1.780e+00     
-177.000         -90.000            6.157e-02           4.652e-02             268.814           1.505e-02             166.945           1.832e+00     
-176.000         -90.000            5.677e-02           3.447e-02             268.145           2.230e-02             154.469           1.618e+00     
-175.000         -90.000            4.333e-02           1.115e-02             266.794           3.219e-02             145.476           2.229e+00     
-174.000         -90.000            4.242e-02           1.931e-05             139.294           4.240e-02             139.177           3.162e+02     
-173.000         -90.000            6.194e-02           1.210e-02              89.229           4.984e-02             134.586           3.236e+00     
-172.000         -90.000            8.718e-02           3.518e-02              87.892           5.200e-02             130.968           2.600e+00     
-171.000         -90.000            9.455e-02           4.641e-02              87.281           4.814e-02             127.773           2.712e+00     
-170.000         -90.000            7.455e-02           3.504e-02              87.358           3.951e-02             124.489           2.984e+00     
-169.000         -90.000            4.119e-02           1.248e-02              89.705           2.871e-02             120.444           4.008e+00     
-168.000         -90.000            1.880e-02           2.789e-04             141.350           1.853e-02             114.512           1.827e+01     
-167.000         -90.000            1.976e-02           8.845e-03             252.412           1.091e-02             104.695           3.478e+00     
-166.000         -90.000            3.462e-02           2.805e-02             256.348           6.578e-03              88.364           1.216e+01     
-165.000         -90.000            4.339e-02           3.818e-02             258.222           5.209e-03              66.562           1.516e+01     
-164.000         -90.000            3.559e-02           2.961e-02             261.672           5.975e-03              47.837           4.587e+00     
-163.000         -90.000            1.961e-02           1.164e-02             273.077           7.977e-03              36.886           1.933e+00     
