Theta [deg.]  Phi   [deg.]  Abs(Dir.)[      ]   Abs(Theta)[      ]  Phase(Theta)[deg.]  Abs(Phi  )[      ]  Phase(Phi  )[deg.]  Ax.Ratio[      ]    
------------------------------------------------------------------------------------------------------------------------------------------------------
-180.000         -90.000            1.555e-02           5.646e-06             270.601           1.554e-02             280.665           3.004e+02     
-179.000         -90.000            2.294e-02           7.386e-03              33.893           1.556e-02             277.862           1.838e+00     
-178.000         -90.000            3.911e-02           2.301e-02              34.634           1.610e-02             270.983           1.920e+00     
-177.000         -90.000            4.997e-02           3.227e-02              35.094           1.770e-02             261.475           2.486e+00     
-176.000         -90.000            4.721e-02           2.652e-02              35.863           2.069e-02             251.363           3.154e+00     
-175.000         -90.000            3.603e-02           1.114e-02              38.166           2.488e-02             242.240           5.108e+00     
-174.000         -90.000            3.001e-02           5.665e-04              60.917           2.944e-02             234.701           6.785e+01     
-173.000         -90.000            3.810e-02           4.950e-03             202.275           3.315e-02             228.628           6.548e+00     
-172.000         -90.000            5.565e-02           2.081e-02             207.170           3.484e-02             223.631           7.154e+00     
-171.000         -90.000            6.809e-02           3.418e-02             208.522           3.391e-02             219.287           1.061e+01     
-170.000         -90.000            6.371e-02           3.325e-02             209.602           3.046e-02             215.184           2.053e+01     
-169.000         -90.000            4.422e-02           1.893e-02             211.881           2.528e-02             210.891           1.169e+02     
-168.000         -90.000            2.341e-02           3.923e-03             221.902           1.948e-02             205.881           9.596e+00     
-167.000         -90.000            1.543e-02           1.320e-03             351.158           1.411e-02             199.458           7.405e+00     
-166.000         -90.000            2.307e-02           1.320e-02              14.161           9.867e-03             190.758           3.402e+01     
-165.000         -90.000            3.616e-02           2.911e-02              18.242           7.049e-03             179.047           7.545e+00     
-164.000         -90.000            4.106e-02           3.548e-02              21.072           5.578e-03             164.663           4.705e+00     
-163.000         -90.000            3.252e-02           2.735e-02              25.671           5.170e-03             149.712           2.963e+00     
