Theta [deg.]  Phi   [deg.]  Abs(Dir.)[      ]   Abs(Theta)[      ]  Phase(Theta)[deg.]  Abs(Phi  )[      ]  Phase(Phi  )[deg.]  Ax.Ratio[      ]    
------------------------------------------------------------------------------------------------------------------------------------------------------
-180.000         -90.000            8.583e-03           1.584e-06             231.518           8.582e-03             268.889           1.213e+02     
-179.000         -90.000            1.329e-02           4.912e-03             187.146           8.382e-03             267.781           1.370e+00     
-178.000         -90.000            2.530e-02           1.742e-02             186.954           7.877e-03             264.700           1.575e+00     
-177.000         -90.000            3.964e-02           3.245e-02             187.155           7.185e-03             259.481           2.287e+00     
-176.000         -90.000            5.043e-02           4.396e-02             187.648           6.467e-03             251.940           2.984e+00     
-175.000         -90.000            5.326e-02           4.737e-02             188.538           5.898e-03             242.052           3.693e+00     
-174.000         -90.000            4.708e-02           4.145e-02             190.109           5.628e-03             230.243           4.563e+00     
-173.000         -90.000            3.450e-02           2.875e-02             193.060           5.748e-03             217.525           6.322e+00     
-172.000         -90.000            2.075e-02           1.448e-02             199.516           6.269e-03             205.162           2.209e+01     
-171.000         -90.000            1.142e-02           4.304e-03             219.181           7.115e-03             194.066           4.646e+00     
-170.000         -90.000            1.014e-02           2.008e-03             290.675           8.136e-03             184.531           2.147e+00     
-169.000         -90.000            1.715e-02           8.025e-03             332.524           9.127e-03             176.414           4.737e+00     
-168.000         -90.000            2.921e-02           1.934e-02             343.651           9.877e-03             169.402           2.105e+01     
-167.000         -90.000            4.103e-02           3.083e-02             348.597           1.020e-02             163.158           2.437e+01     
-166.000         -90.000            4.747e-02           3.748e-02             351.870           9.990e-03             157.381           9.702e+00     
-165.000         -90.000            4.569e-02           3.647e-02             355.015           9.216e-03             151.789           6.157e+00     
-164.000         -90.000            3.628e-02           2.832e-02             359.279           7.957e-03             146.097           4.176e+00     
-163.000         -90.000            2.306e-02           1.669e-02               7.047           6.374e-03             139.948           2.679e+00     
