Theta [deg.]  Phi   [deg.]  Abs(Dir.)[      ]   Abs(Theta)[      ]  Phase(Theta)[deg.]  Abs(Phi  )[      ]  Phase(Phi  )[deg.]  Ax.Ratio[      ]    
------------------------------------------------------------------------------------------------------------------------------------------------------
-180.000         -90.000            1.395e-02           2.285e-06             265.873           1.395e-02             320.106           9.631e+01     
-179.000         -90.000            2.034e-02           6.831e-03             216.094           1.351e-02             318.814           1.507e+00     
-178.000         -90.000            3.464e-02           2.208e-02             215.888           1.256e-02             315.083           1.385e+00     
-177.000         -90.000            4.608e-02           3.469e-02             216.170           1.138e-02             308.836           1.749e+00     
-176.000         -90.000            4.591e-02           3.559e-02             216.962           1.032e-02             300.170           1.881e+00     
-175.000         -90.000            3.389e-02           2.424e-02             218.840           9.658e-03             289.644           1.786e+00     
-174.000         -90.000            1.845e-02           8.939e-03             224.420           9.515e-03             278.373           1.966e+00     
-173.000         -90.000            1.046e-02           6.443e-04             270.188           9.819e-03             267.659           9.425e+01     
-172.000         -90.000            1.530e-02           4.967e-03              14.073           1.033e-02             258.412           1.820e+00     
-171.000         -90.000            2.899e-02           1.825e-02              23.604           1.074e-02             250.955           2.398e+00     
-170.000         -90.000            4.125e-02           3.047e-02              27.273           1.077e-02             245.211           3.409e+00     
-169.000         -90.000            4.299e-02           3.272e-02              30.559           1.027e-02             240.980           4.405e+00     
-168.000         -90.000            3.291e-02           2.367e-02              35.838           9.244e-03             238.062           5.708e+00     
-167.000         -90.000            1.827e-02           1.043e-02              48.814           7.847e-03             236.303           1.544e+01     
-166.000         -90.000            9.514e-03           3.213e-03              96.396           6.301e-03             235.550           2.887e+00     
-165.000         -90.000            1.268e-02           7.865e-03             158.163           4.820e-03             235.584           1.393e+00     
-164.000         -90.000            2.511e-02           2.156e-02             175.883           3.549e-03             235.964           2.976e+00     
-163.000         -90.000            3.736e-02           3.482e-02             182.673           2.545e-03             235.870           4.746e+00     
