Theta [deg.]  Phi   [deg.]  Abs(Dir.)[      ]   Abs(Theta)[      ]  Phase(Theta)[deg.]  Abs(Phi  )[      ]  Phase(Phi  )[deg.]  Ax.Ratio[      ]    
------------------------------------------------------------------------------------------------------------------------------------------------------
-180.000         -90.000            4.483e-02           1.714e-06             142.766           4.483e-02             200.735           1.908e+02     
-179.000         -90.000            4.736e-02           3.433e-03             288.394           4.393e-02             200.179           3.579e+00     
-178.000         -90.000            5.447e-02           1.289e-02             288.815           4.158e-02             198.567           1.796e+00     
-177.000         -90.000            6.349e-02           2.540e-02             289.049           3.809e-02             195.819           1.234e+00     
-176.000         -90.000            7.090e-02           3.701e-02             289.303           3.389e-02             191.809           1.148e+00     
-175.000         -90.000            7.354e-02           4.407e-02             289.658           2.947e-02             186.376           1.363e+00     
-174.000         -90.000            6.968e-02           4.437e-02             290.214           2.532e-02             179.362           1.600e+00     
-173.000         -90.000            5.963e-02           3.779e-02             291.150           2.183e-02             170.699           1.874e+00     
-172.000         -90.000            4.571e-02           2.643e-02             292.871           1.928e-02             160.535           2.306e+00     
-171.000         -90.000            3.165e-02           1.389e-02             296.547           1.776e-02             149.341           3.429e+00     
-170.000         -90.000            2.143e-02           4.224e-03             307.529           1.720e-02             137.856           1.395e+01     
-169.000         -90.000            1.809e-02           6.873e-04              17.293           1.740e-02             126.835           5.364e+00     
-168.000         -90.000            2.281e-02           4.739e-03              81.612           1.807e-02             116.773           4.032e+00     
-167.000         -90.000            3.447e-02           1.560e-02              92.042           1.887e-02             107.826           7.248e+00     
-166.000         -90.000            4.995e-02           3.048e-02              95.830           1.948e-02              99.907           2.880e+01     
-165.000         -90.000            6.502e-02           4.536e-02              97.923           1.966e-02              92.817           2.442e+01     
-164.000         -90.000            7.547e-02           5.621e-02              99.507           1.927e-02              86.324           9.956e+00     
-163.000         -90.000            7.833e-02           6.008e-02             101.100           1.825e-02              80.210           6.480e+00     
