Theta [deg.]  Phi   [deg.]  Abs(Dir.)[      ]   Abs(Theta)[      ]  Phase(Theta)[deg.]  Abs(Phi  )[      ]  Phase(Phi  )[deg.]  Ax.Ratio[      ]    
------------------------------------------------------------------------------------------------------------------------------------------------------
-180.000         -90.000            1.217e-02           8.302e-06             352.521           1.217e-02             350.145           3.162e+02     
-179.000         -90.000            1.815e-02           5.474e-03             194.881           1.268e-02             346.645           4.377e+00     
-178.000         -90.000            3.139e-02           1.684e-02             194.747           1.455e-02             339.035           3.114e+00     
-177.000         -90.000            4.046e-02           2.223e-02             195.262           1.823e-02             329.741           2.400e+00     
-176.000         -90.000            3.983e-02           1.601e-02             196.867           2.382e-02             320.866           1.946e+00     
-175.000         -90.000            3.537e-02           4.698e-03             203.131           3.067e-02             313.273           2.778e+00     
-174.000         -90.000            3.774e-02           3.914e-04             318.224           3.735e-02             306.911           5.030e+01     
-173.000         -90.000            5.043e-02           8.296e-03               0.376           4.214e-02             301.423           2.790e+00     
-172.000         -90.000            6.473e-02           2.110e-02               4.397           4.363e-02             296.426           1.720e+00     
-171.000         -90.000            6.743e-02           2.611e-02               5.928           4.132e-02             291.578           1.435e+00     
-170.000         -90.000            5.381e-02           1.805e-02               7.392           3.575e-02             286.532           1.460e+00     
-169.000         -90.000            3.317e-02           4.875e-03              11.819           2.830e-02             280.856           2.410e+00     
-168.000         -90.000            2.103e-02           4.237e-04             152.484           2.061e-02             273.910           8.219e+00     
-167.000         -90.000            2.515e-02           1.107e-02             177.727           1.407e-02             264.740           1.140e+00     
-166.000         -90.000            3.868e-02           2.917e-02             180.515           9.506e-03             252.192           1.928e+00     
-165.000         -90.000            4.677e-02           3.972e-02             182.429           7.052e-03             236.014           3.156e+00     
-164.000         -90.000            4.036e-02           3.398e-02             185.508           6.389e-03             218.744           4.790e+00     
-163.000         -90.000            2.424e-02           1.727e-02             193.047           6.971e-03             204.370           1.116e+01     
