Theta [deg.]  Phi   [deg.]  Abs(Dir.)[      ]   Abs(Theta)[      ]  Phase(Theta)[deg.]  Abs(Phi  )[      ]  Phase(Phi  )[deg.]  Ax.Ratio[      ]    
------------------------------------------------------------------------------------------------------------------------------------------------------
-180.000         -90.000            6.675e-03           2.664e-07             326.494           6.675e-03             101.226           2.228e+02     
-179.000         -90.000            1.262e-02           6.092e-03              10.206           6.531e-03              99.977           1.036e+00     
-178.000         -90.000            2.641e-02           2.030e-02              10.500           6.113e-03              96.377           1.831e+00     
-177.000         -90.000            3.894e-02           3.340e-02              10.884           5.547e-03              90.304           2.513e+00     
-176.000         -90.000            4.192e-02           3.692e-02              11.574           4.997e-03              81.718           2.941e+00     
-175.000         -90.000            3.330e-02           2.868e-02              12.972           4.616e-03              70.961           3.089e+00     
-174.000         -90.000            1.858e-02           1.408e-02              16.417           4.495e-03              58.977           3.133e+00     
-173.000         -90.000            7.210e-03           2.579e-03              31.115           4.631e-03              47.113           7.435e+00     
-172.000         -90.000            6.391e-03           1.459e-03             153.012           4.932e-03              36.482           2.211e+00     
-171.000         -90.000            1.645e-02           1.120e-02             175.784           5.243e-03              27.562           3.812e+00     
-170.000         -90.000            3.070e-02           2.530e-02             180.689           5.397e-03              20.313           7.693e+00     
-169.000         -90.000            3.989e-02           3.462e-02             183.618           5.269e-03              14.479           1.561e+01     
-168.000         -90.000            3.813e-02           3.331e-02             186.930           4.818e-03               9.776           6.060e+01     
-167.000         -90.000            2.667e-02           2.258e-02             192.703           4.091e-03               5.977           2.365e+01     
-166.000         -90.000            1.293e-02           9.724e-03             206.949           3.208e-03               2.919           5.504e+00     
-165.000         -90.000            5.693e-03           3.376e-03             254.989           2.317e-03               0.480           1.396e+00     
-164.000         -90.000            9.442e-03           7.900e-03             312.431           1.542e-03             358.544           3.465e+00     
-163.000         -90.000            2.160e-02           2.064e-02             330.518           9.550e-04             356.886           1.086e+01     
