Theta [deg.]  Phi   [deg.]  Abs(Dir.)[      ]   Abs(Theta)[      ]  Phase(Theta)[deg.]  Abs(Phi  )[      ]  Phase(Phi  )[deg.]  Ax.Ratio[      ]    
------------------------------------------------------------------------------------------------------------------------------------------------------
-180.000         -90.000            3.138e-03           1.502e-07              97.832           3.138e-03             223.555           1.781e+02     
-179.000         -90.000            7.483e-03           4.420e-03             302.063           3.063e-03             221.949           1.288e+00     
-178.000         -90.000            1.852e-02           1.565e-02             302.030           2.871e-03             217.100           2.348e+00     
-177.000         -90.000            3.093e-02           2.828e-02             302.089           2.654e-03             208.897           3.271e+00     
-176.000         -90.000            3.877e-02           3.624e-02             302.250           2.530e-03             197.629           3.930e+00     
-175.000         -90.000            3.829e-02           3.569e-02             302.599           2.600e-03             184.490           4.272e+00     
-174.000         -90.000            2.976e-02           2.685e-02             303.350           2.911e-03             171.400           4.293e+00     
-173.000         -90.000            1.742e-02           1.398e-02             305.186           3.436e-03             159.901           4.173e+00     
-172.000         -90.000            7.434e-03           3.355e-03             311.959           4.079e-03             150.492           6.160e+00     
-171.000         -90.000            5.028e-03           3.355e-04              72.834           4.692e-03             142.940           4.012e+00     
-170.000         -90.000            1.197e-02           6.846e-03             109.797           5.123e-03             136.773           4.218e+00     
-169.000         -90.000            2.569e-02           2.044e-02             113.936           5.249e-03             131.544           8.075e+00     
-168.000         -90.000            4.040e-02           3.539e-02             115.723           5.011e-03             126.887           1.561e+01     
-167.000         -90.000            4.971e-02           4.528e-02             117.138           4.427e-03             122.500           3.754e+01     
-166.000         -90.000            4.946e-02           4.587e-02             118.878           3.586e-03             118.100           2.841e+02     
-165.000         -90.000            3.966e-02           3.704e-02             121.672           2.620e-03             113.357           2.780e+01     
-164.000         -90.000            2.448e-02           2.280e-02             127.106           1.679e-03             107.739           1.184e+01     
-163.000         -90.000            1.039e-02           9.497e-03             140.537           8.944e-04             100.106           5.309e+00     
