Theta [deg.]  Phi   [deg.]  Abs(Dir.)[      ]   Abs(Theta)[      ]  Phase(Theta)[deg.]  Abs(Phi  )[      ]  Phase(Phi  )[deg.]  Ax.Ratio[      ]    
------------------------------------------------------------------------------------------------------------------------------------------------------
-180.000         -90.000            1.030e-02           9.088e-07             156.867           1.030e-02             227.506           1.128e+02     
-179.000         -90.000            1.705e-02           6.165e-03              68.927           1.088e-02             226.089           5.169e+00     
-178.000         -90.000            3.185e-02           1.920e-02              68.778           1.265e-02             222.038           4.310e+00     
-177.000         -90.000            4.327e-02           2.758e-02              69.146           1.569e-02             216.537           3.580e+00     
-176.000         -90.000            4.384e-02           2.388e-02              70.277           1.995e-02             210.654           2.790e+00     
-175.000         -90.000            3.645e-02           1.143e-02              73.743           2.502e-02             204.938           2.458e+00     
-174.000         -90.000            3.145e-02           1.368e-03              95.121           3.008e-02             199.494           4.856e+00     
-173.000         -90.000            3.706e-02           2.962e-03             222.138           3.410e-02             194.203           7.743e+00     
-172.000         -90.000            5.152e-02           1.539e-02             234.185           3.613e-02             188.861           2.703e+00     
-171.000         -90.000            6.398e-02           2.834e-02             236.967           3.564e-02             183.240           1.996e+00     
-170.000         -90.000            6.349e-02           3.081e-02             238.419           3.268e-02             177.087           1.688e+00     
-169.000         -90.000            4.850e-02           2.060e-02             240.342           2.790e-02             170.111           1.469e+00     
-168.000         -90.000            2.861e-02           6.339e-03             246.529           2.227e-02             161.953           1.890e+00     
-167.000         -90.000            1.720e-02           3.941e-04             341.312           1.681e-02             152.175           4.207e+01     
-166.000         -90.000            2.089e-02           8.608e-03              40.936           1.228e-02             140.342           1.275e+00     
-165.000         -90.000            3.444e-02           2.540e-02              46.065           9.040e-03             126.304           1.727e+00     
-164.000         -90.000            4.525e-02           3.818e-02              48.220           7.073e-03             110.758           2.738e+00     
-163.000         -90.000            4.345e-02           3.737e-02              50.588           6.088e-03              95.475           3.821e+00     
