Theta [deg.]  Phi   [deg.]  Abs(Dir.)[      ]   Abs(Theta)[      ]  Phase(Theta)[deg.]  Abs(Phi  )[      ]  Phase(Phi  )[deg.]  Ax.Ratio[      ]    
------------------------------------------------------------------------------------------------------------------------------------------------------
-180.000         -90.000            1.046e-02           1.054e-07              86.926           1.046e-02             207.722           3.162e+02     
-179.000         -90.000            1.482e-02           4.554e-03             200.270           1.027e-02             206.844           1.888e+01     
-178.000         -90.000            2.622e-02           1.648e-02             200.448           9.741e-03             204.158           3.195e+01     
-177.000         -90.000            4.016e-02           3.117e-02             200.593           8.992e-03             199.556           1.326e+02     
-176.000         -90.000            5.115e-02           4.295e-02             200.800           8.196e-03             192.926           1.985e+01     
-175.000         -90.000            5.487e-02           4.734e-02             201.145           7.534e-03             184.297           9.924e+00     
-174.000         -90.000            4.990e-02           4.274e-02             201.755           7.162e-03             174.032           5.963e+00     
-173.000         -90.000            3.818e-02           3.100e-02             202.910           7.172e-03             162.914           3.714e+00     
-172.000         -90.000            2.422e-02           1.666e-02             205.409           7.568e-03             151.934           2.238e+00     
-171.000         -90.000            1.334e-02           5.077e-03             212.844           8.267e-03             141.872           1.522e+00     
-170.000         -90.000            9.523e-03           4.069e-04             276.081           9.116e-03             133.066           8.096e+00     
-169.000         -90.000            1.391e-02           3.987e-03             358.850           9.919e-03             125.476           2.325e+00     
-168.000         -90.000            2.442e-02           1.394e-02               7.943           1.048e-02             118.874           1.494e+00     
-167.000         -90.000            3.665e-02           2.601e-02              11.325           1.065e-02             112.973           1.639e+00     
-166.000         -90.000            4.563e-02           3.530e-02              13.616           1.032e-02             107.491           1.857e+00     
-165.000         -90.000            4.773e-02           3.822e-02              15.997           9.512e-03             102.156           2.012e+00     
-164.000         -90.000            4.211e-02           3.382e-02              19.318           8.293e-03              96.698           2.101e+00     
-163.000         -90.000            3.096e-02           2.415e-02              24.947           6.811e-03              90.806           2.189e+00     
