Theta [deg.]  Phi   [deg.]  Abs(Dir.)[      ]   Abs(Theta)[      ]  Phase(Theta)[deg.]  Abs(Phi  )[      ]  Phase(Phi  )[deg.]  Ax.Ratio[      ]    
------------------------------------------------------------------------------------------------------------------------------------------------------
-180.000         -90.000            1.479e-02           9.929e-08             175.759           1.479e-02             299.034           3.162e+02     
-179.000         -90.000            1.915e-02           4.613e-03             265.866           1.453e-02             298.301           4.117e+00     
-178.000         -90.000            3.056e-02           1.675e-02             266.100           1.381e-02             296.060           3.757e+00     
-177.000         -90.000            4.467e-02           3.193e-02             266.336           1.274e-02             292.213           4.869e+00     
-176.000         -90.000            5.612e-02           4.460e-02             266.683           1.152e-02             286.628           7.117e+00     
-175.000         -90.000            6.052e-02           5.015e-02             267.233           1.037e-02             279.216           1.270e+01     
-174.000         -90.000            5.615e-02           4.668e-02             268.147           9.477e-03             270.071           7.953e+01     
-173.000         -90.000            4.454e-02           3.556e-02             269.765           8.983e-03             259.610           1.406e+01     
-172.000         -90.000            2.987e-02           2.093e-02             272.977           8.943e-03             248.584           5.091e+00     
-171.000         -90.000            1.737e-02           8.056e-03             281.086           9.317e-03             237.841           2.532e+00     
-170.000         -90.000            1.136e-02           1.381e-03             317.860           9.980e-03             227.997           2.689e+00     
-169.000         -90.000            1.365e-02           2.899e-03              46.271           1.075e-02             219.292           2.007e+01     
-168.000         -90.000            2.292e-02           1.151e-02              65.254           1.140e-02             211.662           3.313e+00     
-167.000         -90.000            3.531e-02           2.355e-02              71.280           1.176e-02             204.895           2.536e+00     
-166.000         -90.000            4.591e-02           3.422e-02              74.659           1.168e-02             198.729           2.345e+00     
-165.000         -90.000            5.057e-02           3.947e-02              77.503           1.110e-02             192.899           2.225e+00     
-164.000         -90.000            4.749e-02           3.745e-02              80.831           1.005e-02             187.142           2.068e+00     
-163.000         -90.000            3.783e-02           2.921e-02              85.797           8.621e-03             181.182           1.855e+00     
