Theta [deg.]  Phi   [deg.]  Abs(Dir.)[      ]   Abs(Theta)[      ]  Phase(Theta)[deg.]  Abs(Phi  )[      ]  Phase(Phi  )[deg.]  Ax.Ratio[      ]    
------------------------------------------------------------------------------------------------------------------------------------------------------
-180.000         -90.000            1.197e-02           4.015e-07             160.963           1.197e-02             257.658           1.739e+02     
-179.000         -90.000            1.821e-02           6.138e-03             337.289           1.207e-02             256.131           1.452e+00     
-178.000         -90.000            3.214e-02           1.981e-02             337.500           1.232e-02             251.676           1.282e+00     
-177.000         -90.000            4.297e-02           3.008e-02             337.929           1.289e-02             244.916           1.533e+00     
-176.000         -90.000            4.265e-02           2.871e-02             338.840           1.394e-02             236.826           1.523e+00     
-175.000         -90.000            3.228e-02           1.680e-02             341.070           1.548e-02             228.454           1.503e+00     
-174.000         -90.000            2.126e-02           3.958e-03             349.687           1.730e-02             220.563           2.976e+00     
-173.000         -90.000            1.978e-02           7.637e-04             114.949           1.902e-02             213.486           5.051e+00     
-172.000         -90.000            3.057e-02           1.043e-02             144.568           2.015e-02             207.211           1.828e+00     
-171.000         -90.000            4.646e-02           2.618e-02             148.977           2.028e-02             201.550           2.052e+00     
-170.000         -90.000            5.567e-02           3.645e-02             151.382           1.922e-02             196.248           2.596e+00     
-169.000         -90.000            5.077e-02           3.371e-02             154.113           1.707e-02             191.025           3.214e+00     
-168.000         -90.000            3.432e-02           2.017e-02             159.305           1.415e-02             185.586           4.359e+00     
-167.000         -90.000            1.704e-02           6.095e-03             175.387           1.095e-02             179.582           2.848e+01     
-166.000         -90.000            9.929e-03           2.014e-03             255.645           7.915e-03             172.589           2.007e+00     
-165.000         -90.000            1.633e-02           1.093e-02             301.575           5.400e-03             164.054           2.789e+00     
-164.000         -90.000            2.986e-02           2.630e-02             311.988           3.558e-03             153.342           8.357e+00     
-163.000         -90.000            3.946e-02           3.708e-02             317.535           2.375e-03             140.026           9.673e+01     
