Theta [deg.]  Phi   [deg.]  Abs(Dir.)[      ]   Abs(Theta)[      ]  Phase(Theta)[deg.]  Abs(Phi  )[      ]  Phase(Phi  )[deg.]  Ax.Ratio[      ]    
------------------------------------------------------------------------------------------------------------------------------------------------------
-180.000         -90.000            7.409e-03           1.140e-07             358.747           7.409e-03             117.586           2.910e+02     
-179.000         -90.000            1.176e-02           4.483e-03             135.228           7.273e-03             116.527           6.262e+00     
-178.000         -90.000            2.306e-02           1.616e-02             135.340           6.899e-03             113.303           5.643e+00     
-177.000         -90.000            3.665e-02           3.025e-02             135.409           6.399e-03             107.809           5.504e+00     
-176.000         -90.000            4.694e-02           4.102e-02             135.507           5.923e-03             100.012           4.986e+00     
-175.000         -90.000            4.974e-02           4.412e-02             135.690           5.628e-03              90.172           4.186e+00     
-174.000         -90.000            4.398e-02           3.835e-02             136.057           5.630e-03              79.039           3.261e+00     
-173.000         -90.000            3.208e-02           2.611e-02             136.835           5.977e-03              67.733           2.318e+00     
-172.000         -90.000            1.898e-02           1.235e-02             138.742           6.633e-03              57.265           1.413e+00     
-171.000         -90.000            1.002e-02           2.544e-03             146.130           7.480e-03              48.148           1.749e+00     
-170.000         -90.000            8.764e-03           4.146e-04             277.846           8.349e-03              40.412           5.404e+00     
-169.000         -90.000            1.555e-02           6.507e-03             304.723           9.048e-03              33.821           1.180e+00     
-168.000         -90.000            2.745e-02           1.804e-02             308.470           9.408e-03              28.065           1.455e+00     
-167.000         -90.000            3.945e-02           3.013e-02             310.336           9.320e-03              22.840           1.958e+00     
-166.000         -90.000            4.659e-02           3.784e-02             312.027           8.750e-03              17.865           2.387e+00     
-165.000         -90.000            4.591e-02           3.816e-02             314.250           7.751e-03              12.871           2.765e+00     
-164.000         -90.000            3.767e-02           3.123e-02             317.841           6.445e-03               7.567           3.164e+00     
-163.000         -90.000            2.515e-02           2.015e-02             324.592           4.999e-03               1.583           3.909e+00     
