Theta [deg.]  Phi   [deg.]  Abs(Dir.)[      ]   Abs(Theta)[      ]  Phase(Theta)[deg.]  Abs(Phi  )[      ]  Phase(Phi  )[deg.]  Ax.Ratio[      ]    
------------------------------------------------------------------------------------------------------------------------------------------------------
-180.000         -90.000            6.159e-03           2.571e-07              51.788           6.159e-03             195.771           2.632e+02     
-179.000         -90.000            1.213e-02           6.134e-03              76.785           5.997e-03             194.599           1.658e+00     
-178.000         -90.000            2.608e-02           2.054e-02              77.066           5.537e-03             191.224           2.232e+00     
-177.000         -90.000            3.908e-02           3.418e-02              77.503           4.900e-03             185.456           2.820e+00     
-176.000         -90.000            4.277e-02           3.853e-02              78.300           4.245e-03             177.094           3.057e+00     
-175.000         -90.000            3.469e-02           3.097e-02              79.873           3.722e-03             166.205           2.892e+00     
-174.000         -90.000            1.979e-02           1.636e-02              83.540           3.427e-03             153.494           2.396e+00     
-173.000         -90.000            7.229e-03           3.853e-03              96.869           3.375e-03             140.358           2.515e+00     
-172.000         -90.000            4.603e-03           1.103e-03             201.634           3.501e-03             128.265           1.926e+00     
-171.000         -90.000            1.315e-02           9.473e-03             237.978           3.679e-03             118.028           2.093e+00     
-170.000         -90.000            2.710e-02           2.333e-02             244.710           3.772e-03             109.758           3.821e+00     
-169.000         -90.000            3.742e-02           3.375e-02             248.229           3.671e-03             103.211           5.688e+00     
-168.000         -90.000            3.756e-02           3.423e-02             251.715           3.334e-03              98.086           7.787e+00     
-167.000         -90.000            2.755e-02           2.476e-02             257.233           2.793e-03              94.161           1.129e+01     
-166.000         -90.000            1.391e-02           1.178e-02             269.769           2.138e-03              91.328           1.019e+02     
-165.000         -90.000            5.507e-03           4.022e-03             309.832           1.484e-03              89.604           3.175e+00     
-164.000         -90.000            7.969e-03           7.040e-03              11.149           9.287e-04              89.138           2.833e+00     
-163.000         -90.000            2.020e-02           1.967e-02              32.966           5.253e-04              90.145           7.340e+00     
