Theta [deg.]  Phi   [deg.]  Abs(Dir.)[      ]   Abs(Theta)[      ]  Phase(Theta)[deg.]  Abs(Phi  )[      ]  Phase(Phi  )[deg.]  Ax.Ratio[      ]    
------------------------------------------------------------------------------------------------------------------------------------------------------
-180.000         -90.000            1.184e-02           3.571e-07             250.649           1.184e-02             351.310           1.853e+02     
-179.000         -90.000            1.776e-02           5.895e-03              43.267           1.187e-02             349.867           2.188e+00     
-178.000         -90.000            3.104e-02           1.913e-02              43.533           1.191e-02             345.650           1.903e+00     
-177.000         -90.000            4.154e-02           2.942e-02              43.924           1.212e-02             339.112           1.906e+00     
-176.000         -90.000            4.143e-02           2.874e-02              44.703           1.270e-02             331.050           1.657e+00     
-175.000         -90.000            3.133e-02           1.762e-02              46.554           1.370e-02             322.458           1.177e+00     
-174.000         -90.000            1.981e-02           4.777e-03              53.150           1.504e-02             314.198           1.816e+00     
-173.000         -90.000            1.680e-02           3.891e-04             167.228           1.641e-02             306.752           1.014e+01     
-172.000         -90.000            2.576e-02           8.333e-03             210.643           1.742e-02             300.225           1.446e+00     
-171.000         -90.000            4.087e-02           2.317e-02             215.297           1.770e-02             294.490           1.262e+00     
-170.000         -90.000            5.124e-02           3.422e-02             217.610           1.703e-02             289.317           1.618e+00     
-169.000         -90.000            4.892e-02           3.354e-02             220.083           1.538e-02             284.445           1.848e+00     
-168.000         -90.000            3.483e-02           2.183e-02             224.541           1.300e-02             279.603           2.029e+00     
-167.000         -90.000            1.804e-02           7.791e-03             237.014           1.025e-02             274.494           2.982e+00     
-166.000         -90.000            9.224e-03           1.698e-03             300.686           7.526e-03             268.761           4.665e+00     
-165.000         -90.000            1.308e-02           7.905e-03               3.360           5.172e-03             261.951           1.340e+00     
-164.000         -90.000            2.524e-02           2.187e-02              16.383           3.368e-03             253.474           3.189e+00     
-163.000         -90.000            3.582e-02           3.368e-02              22.356           2.145e-03             242.709           6.352e+00     
