Theta [deg.]  Phi   [deg.]  Abs(Dir.)[      ]   Abs(Theta)[      ]  Phase(Theta)[deg.]  Abs(Phi  )[      ]  Phase(Phi  )[deg.]  Ax.Ratio[      ]    
------------------------------------------------------------------------------------------------------------------------------------------------------
-180.000         -90.000            5.839e-03           2.478e-07             136.776           5.839e-03             288.665           3.162e+02     
-179.000         -90.000            1.170e-02           6.037e-03             143.453           5.664e-03             287.574           3.091e+00     
-178.000         -90.000            2.550e-02           2.032e-02             143.710           5.177e-03             284.431           3.653e+00     
-177.000         -90.000            3.864e-02           3.414e-02             144.192           4.494e-03             279.013           4.157e+00     
-176.000         -90.000            4.291e-02           3.914e-02             145.084           3.771e-03             271.023           4.120e+00     
-175.000         -90.000            3.555e-02           3.239e-02             146.815           3.156e-03             260.314           3.552e+00     
-174.000         -90.000            2.089e-02           1.815e-02             150.696           2.745e-03             247.298           2.594e+00     
-173.000         -90.000            7.678e-03           5.116e-03             163.312           2.562e-03             233.259           1.653e+00     
-172.000         -90.000            3.615e-03           1.060e-03             248.855           2.555e-03             219.907           4.306e+00     
-171.000         -90.000            1.069e-02           8.064e-03             299.333           2.622e-03             208.432           1.754e+00     
-170.000         -90.000            2.403e-02           2.139e-02             308.223           2.645e-03             199.162           3.053e+00     
-169.000         -90.000            3.506e-02           3.253e-02             312.328           2.535e-03             191.909           4.242e+00     
-168.000         -90.000            3.681e-02           3.455e-02             315.864           2.255e-03             186.377           5.211e+00     
-167.000         -90.000            2.822e-02           2.639e-02             320.901           1.829e-03             182.382           5.964e+00     
-166.000         -90.000            1.481e-02           1.348e-02             331.548           1.332e-03             179.950           7.209e+00     
-165.000         -90.000            5.286e-03           4.431e-03               4.861           8.555e-04             179.436           2.868e+01     
-164.000         -90.000            6.219e-03           5.744e-03              70.827           4.748e-04             181.803           3.767e+00     
-163.000         -90.000            1.803e-02           1.781e-02              96.918           2.267e-04             189.150           8.869e+00     
