Theta [deg.]  Phi   [deg.]  Abs(Dir.)[      ]   Abs(Theta)[      ]  Phase(Theta)[deg.]  Abs(Phi  )[      ]  Phase(Phi  )[deg.]  Ax.Ratio[      ]    
------------------------------------------------------------------------------------------------------------------------------------------------------
-180.000         -90.000            2.835e-02           9.622e-08             355.215           2.835e-02             123.373           3.162e+02     
-179.000         -90.000            3.241e-02           4.489e-03              38.611           2.792e-02             122.824           2.512e+00     
-178.000         -90.000            4.303e-02           1.636e-02              38.896           2.667e-02             121.158           1.323e+00     
-177.000         -90.000            5.631e-02           3.156e-02              39.281           2.476e-02             118.309           1.256e+00     
-176.000         -90.000            6.732e-02           4.490e-02              39.871           2.242e-02             114.178           1.565e+00     
-175.000         -90.000            7.185e-02           5.192e-02              40.779           1.993e-02             108.644           1.879e+00     
-174.000         -90.000            6.792e-02           5.032e-02              42.211           1.759e-02             101.618           2.196e+00     
-173.000         -90.000            5.646e-02           4.083e-02              44.581           1.563e-02              93.113           2.597e+00     
-172.000         -90.000            4.102e-02           2.681e-02              48.872           1.421e-02              83.343           3.421e+00     
-171.000         -90.000            2.651e-02           1.312e-02              58.024           1.339e-02              72.766           7.731e+00     
-170.000         -90.000            1.750e-02           4.377e-03              83.939           1.312e-02              62.013           6.018e+00     
-169.000         -90.000            1.664e-02           3.369e-03             146.708           1.327e-02              51.677           1.998e+00     
-168.000         -90.000            2.380e-02           1.016e-02             181.107           1.365e-02              42.134           2.711e+00     
-167.000         -90.000            3.613e-02           2.212e-02             192.908           1.401e-02              33.503           5.658e+00     
-166.000         -90.000            4.905e-02           3.489e-02             198.750           1.416e-02              25.711           1.815e+01     
-165.000         -90.000            5.788e-02           4.396e-02             202.747           1.392e-02              18.585           3.220e+01     
-164.000         -90.000            5.944e-02           4.622e-02             206.412           1.322e-02              11.910           9.498e+00     
-163.000         -90.000            5.309e-02           4.104e-02             210.773           1.205e-02               5.462           5.399e+00     
