Theta [deg.]  Phi   [deg.]  Abs(Dir.)[      ]   Abs(Theta)[      ]  Phase(Theta)[deg.]  Abs(Phi  )[      ]  Phase(Phi  )[deg.]  Ax.Ratio[      ]    
------------------------------------------------------------------------------------------------------------------------------------------------------
-180.000         -90.000            5.097e-03           2.278e-07             306.309           5.097e-03             107.079           3.162e+02     
-179.000         -90.000            1.042e-02           5.505e-03             275.795           4.920e-03             106.060           1.115e+01     
-178.000         -90.000            2.315e-02           1.872e-02             275.969           4.436e-03             103.086           2.046e+01     
-177.000         -90.000            3.575e-02           3.199e-02             276.474           3.761e-03              97.902           1.307e+02     
-176.000         -90.000            4.073e-02           3.768e-02             277.449           3.043e-03              90.125           2.980e+01     
-175.000         -90.000            3.504e-02           3.262e-02             279.324           2.420e-03              79.420           1.150e+01     
-174.000         -90.000            2.187e-02           1.989e-02             283.359           1.981e-03              65.953           5.556e+00     
-173.000         -90.000            8.725e-03           6.981e-03             294.941           1.744e-03              50.920           2.358e+00     
-172.000         -90.000            3.048e-03           1.387e-03             354.991           1.661e-03              36.300           2.667e+00     
-171.000         -90.000            7.877e-03           6.233e-03              61.396           1.645e-03              23.670           3.755e+00     
-170.000         -90.000            2.010e-02           1.850e-02              74.390           1.601e-03              13.549           3.978e+00     
-169.000         -90.000            3.230e-02           3.083e-02              79.318           1.464e-03               5.780           4.804e+00     
-168.000         -90.000            3.711e-02           3.589e-02              82.514           1.216e-03               0.107           5.485e+00     
-167.000         -90.000            3.154e-02           3.065e-02              85.970           8.876e-04             356.542           5.877e+00     
-166.000         -90.000            1.876e-02           1.822e-02              91.977           5.451e-04             355.786           5.817e+00     
-165.000         -90.000            6.440e-03           6.177e-03             108.857           2.627e-04               0.429           5.134e+00     
-164.000         -90.000            2.414e-03           2.318e-03             178.009           9.592e-05              19.903           1.366e+01     
-163.000         -90.000            1.031e-02           1.025e-02             226.229           6.314e-05              68.407           3.393e+01     
