Theta [deg.]  Phi   [deg.]  Abs(Dir.)[      ]   Abs(Theta)[      ]  Phase(Theta)[deg.]  Abs(Phi  )[      ]  Phase(Phi  )[deg.]  Ax.Ratio[      ]    
------------------------------------------------------------------------------------------------------------------------------------------------------
-180.000         -90.000            5.321e-02           2.524e-08             229.862           5.321e-02             355.190           3.162e+02     
-179.000         -90.000            5.637e-02           3.727e-03             217.495           5.264e-02             354.707           5.751e+00     
-178.000         -90.000            6.482e-02           1.381e-02             217.651           5.101e-02             353.255           3.176e+00     
-177.000         -90.000            7.587e-02           2.738e-02             217.959           4.849e-02             350.811           2.428e+00     
-176.000         -90.000            8.593e-02           4.059e-02             218.452           4.534e-02             347.340           2.096e+00     
-175.000         -90.000            9.158e-02           4.971e-02             219.201           4.188e-02             342.815           1.878e+00     
-174.000         -90.000            9.063e-02           5.221e-02             220.332           3.842e-02             337.222           1.670e+00     
-173.000         -90.000            8.275e-02           4.749e-02             222.080           3.526e-02             330.599           1.437e+00     
-172.000         -90.000            6.960e-02           3.699e-02             224.924           3.261e-02             323.054           1.169e+00     
-171.000         -90.000            5.442e-02           2.382e-02             229.991           3.060e-02             314.788           1.168e+00     
-170.000         -90.000            4.106e-02           1.181e-02             240.551           2.925e-02             306.072           1.901e+00     
-169.000         -90.000            3.295e-02           4.474e-03             268.208           2.848e-02             297.210           5.850e+00     
-168.000         -90.000            3.208e-02           3.961e-03             324.293           2.812e-02             288.473           4.994e+00     
-167.000         -90.000            3.848e-02           1.050e-02             356.560           2.798e-02             280.053           1.731e+00     
-166.000         -90.000            5.015e-02           2.233e-02               8.927           2.782e-02             272.041           1.177e+00     
-165.000         -90.000            6.367e-02           3.624e-02              15.175           2.744e-02             264.448           1.486e+00     
-164.000         -90.000            7.511e-02           4.845e-02              19.283           2.666e-02             257.220           1.954e+00     
-163.000         -90.000            8.111e-02           5.572e-02              22.696           2.539e-02             250.269           2.525e+00     
