Theta [deg.]  Phi   [deg.]  Abs(Dir.)[      ]   Abs(Theta)[      ]  Phase(Theta)[deg.]  Abs(Phi  )[      ]  Phase(Phi  )[deg.]  Ax.Ratio[      ]    
------------------------------------------------------------------------------------------------------------------------------------------------------
-180.000         -90.000            7.394e-03           1.075e-07             311.630           7.394e-03              14.201           2.955e+02     
-179.000         -90.000            1.252e-02           4.919e-03             298.332           7.596e-03              11.096           1.458e+00     
-178.000         -90.000            2.370e-02           1.531e-02             298.552           8.396e-03               2.665           1.754e+00     
-177.000         -90.000            3.233e-02           2.210e-02             299.077           1.022e-02             351.344           2.281e+00     
-176.000         -90.000            3.279e-02           1.940e-02             300.190           1.340e-02             339.949           2.827e+00     
-175.000         -90.000            2.736e-02           9.582e-03             302.970           1.777e-02             330.038           4.378e+00     
-174.000         -90.000            2.384e-02           1.241e-03             317.036           2.259e-02             321.787           5.432e+01     
-173.000         -90.000            2.831e-02           1.668e-03              99.313           2.664e-02             314.765           7.183e+00     
-172.000         -90.000            3.920e-02           1.053e-02             111.454           2.867e-02             308.462           7.580e+00     
-171.000         -90.000            4.817e-02           2.025e-02             115.640           2.792e-02             302.430           1.708e+01     
-170.000         -90.000            4.707e-02           2.263e-02             120.026           2.444e-02             296.268           3.050e+01     
-169.000         -90.000            3.515e-02           1.605e-02             127.798           1.910e-02             289.541           6.248e+00     
-168.000         -90.000            2.003e-02           6.821e-03             147.815           1.321e-02             281.667           2.531e+00     
-167.000         -90.000            1.172e-02           3.664e-03             205.267           8.058e-03             271.731           1.796e+00     
-166.000         -90.000            1.444e-02           1.004e-02             249.349           4.398e-03             258.282           1.392e+01     
-165.000         -90.000            2.337e-02           2.104e-02             264.276           2.323e-03             239.745           7.923e+00     
-164.000         -90.000            2.890e-02           2.749e-02             272.088           1.410e-03             217.506           5.514e+00     
-163.000         -90.000            2.490e-02           2.382e-02             279.429           1.079e-03             199.087           4.774e+00     
