Theta [deg.]  Phi   [deg.]  Abs(Dir.)[      ]   Abs(Theta)[      ]  Phase(Theta)[deg.]  Abs(Phi  )[      ]  Phase(Phi  )[deg.]  Ax.Ratio[      ]    
------------------------------------------------------------------------------------------------------------------------------------------------------
-180.000         -90.000            6.135e-02           3.062e-08             301.311           6.135e-02              91.298           3.162e+02     
-179.000         -90.000            6.399e-02           3.324e-03             283.318           6.066e-02              90.829           2.079e+01     
-178.000         -90.000            7.102e-02           1.235e-02             283.464           5.867e-02              89.419           1.078e+01     
-177.000         -90.000            8.017e-02           2.458e-02             283.769           5.559e-02              87.041           7.400e+00     
-176.000         -90.000            8.841e-02           3.667e-02             284.259           5.174e-02              83.656           5.589e+00     
-175.000         -90.000            9.281e-02           4.532e-02             285.001           4.749e-02              79.225           4.372e+00     
-174.000         -90.000            9.143e-02           4.820e-02             286.117           4.323e-02              73.725           3.449e+00     
-173.000         -90.000            8.391e-02           4.460e-02             287.827           3.931e-02              67.176           2.707e+00     
-172.000         -90.000            7.159e-02           3.560e-02             290.573           3.599e-02              59.671           2.101e+00     
-171.000         -90.000            5.722e-02           2.380e-02             295.360           3.342e-02              51.396           1.653e+00     
-170.000         -90.000            4.419e-02           1.256e-02             304.948           3.163e-02              42.622           1.620e+00     
-169.000         -90.000            3.563e-02           5.089e-03             328.548           3.054e-02              33.664           2.792e+00     
-168.000         -90.000            3.357e-02           3.596e-03              20.242           2.997e-02              24.810           4.057e+01     
-167.000         -90.000            3.835e-02           8.655e-03              57.125           2.970e-02              16.271           3.359e+00     
-166.000         -90.000            4.855e-02           1.908e-02              71.613           2.947e-02               8.156           1.701e+00     
-165.000         -90.000            6.131e-02           3.226e-02              78.634           2.905e-02               0.479           1.240e+00     
-164.000         -90.000            7.310e-02           4.483e-02              83.004           2.827e-02             353.194           1.259e+00     
-163.000         -90.000            8.063e-02           5.361e-02              86.401           2.702e-02             346.215           1.474e+00     
