Theta [deg.]  Phi   [deg.]  Abs(Dir.)[      ]   Abs(Theta)[      ]  Phase(Theta)[deg.]  Abs(Phi  )[      ]  Phase(Phi  )[deg.]  Ax.Ratio[      ]    
------------------------------------------------------------------------------------------------------------------------------------------------------
-180.000         -90.000            1.642e-04           5.389e-08             335.338           1.641e-04              16.314           8.418e+01     
-179.000         -90.000            5.490e-03           5.294e-03             332.591           1.958e-04              14.923           7.881e+00     
-178.000         -90.000            1.868e-02           1.838e-02             332.828           3.035e-04              11.777           1.250e+01     
-177.000         -90.000            3.302e-02           3.250e-02             333.298           5.206e-04               8.251           1.394e+01     
-176.000         -90.000            4.131e-02           4.043e-02             334.133           8.815e-04               4.819           1.349e+01     
-175.000         -90.000            3.957e-02           3.817e-02             335.628           1.400e-03               1.409           1.236e+01     
-174.000         -90.000            2.909e-02           2.704e-02             338.523           2.051e-03             357.834           1.173e+01     
-173.000         -90.000            1.566e-02           1.290e-02             345.289           2.768e-03             353.921           1.741e+01     
-172.000         -90.000            6.507e-03           3.055e-03               9.818           3.452e-03             349.519           5.597e+00     
-171.000         -90.000            6.462e-03           2.469e-03              96.517           3.993e-03             344.480           1.592e+00     
-170.000         -90.000            1.550e-02           1.120e-02             126.316           4.301e-03             338.635           3.922e+00     
-169.000         -90.000            2.877e-02           2.444e-02             134.479           4.331e-03             331.765           9.304e+00     
-168.000         -90.000            3.922e-02           3.513e-02             138.706           4.096e-03             323.572           3.851e+01     
-167.000         -90.000            4.129e-02           3.762e-02             142.248           3.668e-03             313.660           2.349e+01     
-166.000         -90.000            3.385e-02           3.069e-02             146.789           3.159e-03             301.541           7.934e+00     
-165.000         -90.000            2.090e-02           1.821e-02             155.065           2.695e-03             286.788           3.729e+00     
-164.000         -90.000            9.576e-03           7.190e-03             176.359           2.386e-03             269.450           1.741e+00     
-163.000         -90.000            6.573e-03           4.277e-03             233.815           2.295e-03             250.578           7.133e+00     
