Theta [deg.]  Phi   [deg.]  Abs(Dir.)[      ]   Abs(Theta)[      ]  Phase(Theta)[deg.]  Abs(Phi  )[      ]  Phase(Phi  )[deg.]  Ax.Ratio[      ]    
------------------------------------------------------------------------------------------------------------------------------------------------------
-180.000         -90.000            6.204e-03           8.748e-08             348.346           6.204e-03             145.034           3.162e+02     
-179.000         -90.000            1.233e-02           6.298e-03             270.747           6.029e-03             142.554           2.060e+00     
-178.000         -90.000            2.604e-02           2.039e-02             270.938           5.650e-03             135.093           3.167e+00     
-177.000         -90.000            3.701e-02           3.160e-02             271.549           5.415e-03             123.084           5.219e+00     
-176.000         -90.000            3.711e-02           3.144e-02             272.889           5.670e-03             108.391           1.030e+01     
-175.000         -90.000            2.667e-02           2.012e-02             276.069           6.542e-03              94.006           6.455e+01     
-174.000         -90.000            1.424e-02           6.406e-03             286.529           7.838e-03              81.972           4.620e+00     
-173.000         -90.000            1.010e-02           9.967e-04               5.868           9.102e-03              72.589           3.352e+00     
-172.000         -90.000            1.827e-02           8.452e-03              64.677           9.820e-03              65.302           1.837e+02     
-171.000         -90.000            3.330e-02           2.366e-02              73.239           9.639e-03              59.481           9.163e+00     
-170.000         -90.000            4.408e-02           3.556e-02              76.457           8.517e-03              54.671           6.675e+00     
-169.000         -90.000            4.205e-02           3.533e-02              78.723           6.715e-03              50.628           5.619e+00     
-168.000         -90.000            2.767e-02           2.300e-02              81.948           4.674e-03              47.334           4.475e+00     
-167.000         -90.000            1.045e-02           7.622e-03              91.077           2.828e-03              45.087           2.768e+00     
-166.000         -90.000            2.368e-03           9.097e-04             165.701           1.458e-03              44.819           1.857e+00     
-165.000         -90.000            9.487e-03           8.852e-03             232.678           6.347e-04              48.910           6.090e+01     
-164.000         -90.000            2.759e-02           2.734e-02             241.269           2.585e-04              62.266           3.162e+02     
-163.000         -90.000            4.498e-02           4.482e-02             244.597           1.546e-04              84.896           4.922e+01     
