Theta [deg.]  Phi   [deg.]  Abs(Dir.)[      ]   Abs(Theta)[      ]  Phase(Theta)[deg.]  Abs(Phi  )[      ]  Phase(Phi  )[deg.]  Ax.Ratio[      ]    
------------------------------------------------------------------------------------------------------------------------------------------------------
-180.000         -90.000            2.819e-02           1.164e-08             347.514           2.819e-02             334.138           3.162e+02     
-179.000         -90.000            3.209e-02           4.171e-03             313.918           2.792e-02             333.532           8.744e+00     
-178.000         -90.000            4.241e-02           1.527e-02             313.976           2.714e-02             331.709           6.690e+00     
-177.000         -90.000            5.558e-02           2.960e-02             314.128           2.598e-02             328.653           7.864e+00     
-176.000         -90.000            6.702e-02           4.240e-02             314.393           2.462e-02             324.357           1.190e+01     
-175.000         -90.000            7.272e-02           4.945e-02             314.830           2.327e-02             318.848           3.056e+01     
-174.000         -90.000            7.059e-02           4.849e-02             315.550           2.211e-02             312.234           3.726e+01     
-173.000         -90.000            6.120e-02           3.990e-02             316.779           2.130e-02             304.726           9.953e+00     
-172.000         -90.000            4.751e-02           2.659e-02             319.052           2.092e-02             296.633           5.085e+00     
-171.000         -90.000            3.394e-02           1.298e-02             323.999           2.096e-02             288.319           3.217e+00     
-170.000         -90.000            2.480e-02           3.477e-03             339.683           2.133e-02             280.114           3.008e+00     
-169.000         -90.000            2.291e-02           1.061e-03              61.196           2.185e-02             272.248           9.117e+00     
-168.000         -90.000            2.862e-02           6.291e-03             107.268           2.232e-02             264.827           6.163e+00     
-167.000         -90.000            3.973e-02           1.720e-02             116.985           2.253e-02             257.844           2.846e+00     
-166.000         -90.000            5.229e-02           3.002e-02             121.232           2.227e-02             251.215           2.181e+00     
-165.000         -90.000            6.188e-02           4.043e-02             124.112           2.145e-02             244.807           1.924e+00     
-164.000         -90.000            6.509e-02           4.508e-02             126.854           2.001e-02             238.456           1.764e+00     
-163.000         -90.000            6.063e-02           4.260e-02             130.238           1.803e-02             231.967           1.615e+00     
