Theta [deg.]  Phi   [deg.]  Abs(Dir.)[      ]   Abs(Theta)[      ]  Phase(Theta)[deg.]  Abs(Phi  )[      ]  Phase(Phi  )[deg.]  Ax.Ratio[      ]    
------------------------------------------------------------------------------------------------------------------------------------------------------
-180.000         -90.000            3.338e-03           9.251e-09             300.318           3.338e-03             162.711           3.162e+02     
-179.000         -90.000            8.941e-03           5.789e-03             174.582           3.151e-03             161.252           8.967e+00     
-178.000         -90.000            2.187e-02           1.921e-02             174.690           2.660e-03             156.567           9.733e+00     
-177.000         -90.000            3.313e-02           3.108e-02             174.981           2.049e-03             147.672           8.937e+00     
-176.000         -90.000            3.480e-02           3.326e-02             175.600           1.537e-03             133.200           7.077e+00     
-175.000         -90.000            2.551e-02           2.422e-02             176.979           1.288e-03             113.318           4.892e+00     
-174.000         -90.000            1.153e-02           1.018e-02             180.842           1.348e-03              92.485           2.750e+00     
-173.000         -90.000            2.582e-03           9.529e-04             206.461           1.629e-03              75.944           2.289e+00     
-172.000         -90.000            5.341e-03           3.385e-03             332.874           1.956e-03              64.673           1.318e+00     
-171.000         -90.000            1.887e-02           1.673e-02             343.286           2.142e-03              57.368           2.938e+00     
-170.000         -90.000            3.508e-02           3.301e-02             346.301           2.066e-03              52.866           4.402e+00     
-169.000         -90.000            4.393e-02           4.220e-02             348.284           1.722e-03              50.704           5.636e+00     
-168.000         -90.000            3.987e-02           3.866e-02             350.659           1.211e-03              51.287           6.533e+00     
-167.000         -90.000            2.545e-02           2.475e-02             354.989           6.976e-04              56.593           6.815e+00     
-166.000         -90.000            9.628e-03           9.292e-03               6.534           3.365e-04              72.446           5.792e+00     
-165.000         -90.000            2.164e-03           1.948e-03              61.236           2.159e-04             106.422           4.480e+00     
-164.000         -90.000            7.532e-03           7.203e-03             130.435           3.289e-04             137.344           4.066e+01     
-163.000         -90.000            2.231e-02           2.172e-02             145.555           5.868e-04             149.663           8.721e+01     
