Theta [deg.]  Phi   [deg.]  Abs(Dir.)[      ]   Abs(Theta)[      ]  Phase(Theta)[deg.]  Abs(Phi  )[      ]  Phase(Phi  )[deg.]  Ax.Ratio[      ]    
------------------------------------------------------------------------------------------------------------------------------------------------------
-180.000         -90.000            1.133e-03           5.536e-08             120.099           1.133e-03             211.898           1.431e+02     
-179.000         -90.000            5.957e-03           4.752e-03             101.820           1.205e-03             210.290           2.162e+00     
-178.000         -90.000            1.805e-02           1.662e-02             102.027           1.434e-03             206.080           3.529e+00     
-177.000         -90.000            3.164e-02           2.979e-02             102.479           1.849e-03             200.515           4.058e+00     
-176.000         -90.000            4.031e-02           3.784e-02             103.292           2.478e-03             194.673           3.909e+00     
-175.000         -90.000            4.019e-02           3.687e-02             104.735           3.312e-03             189.066           3.356e+00     
-174.000         -90.000            3.178e-02           2.748e-02             107.478           4.296e-03             183.765           2.630e+00     
-173.000         -90.000            1.971e-02           1.439e-02             113.596           5.319e-03             178.627           1.980e+00     
-172.000         -90.000            1.041e-02           4.173e-03             133.118           6.240e-03             173.444           2.796e+00     
-171.000         -90.000            8.920e-03           2.007e-03             209.960           6.913e-03             167.998           3.276e+00     
-170.000         -90.000            1.638e-02           9.146e-03             250.157           7.232e-03             162.067           1.130e+00     
-169.000         -90.000            2.945e-02           2.229e-02             260.251           7.152e-03             155.416           1.881e+00     
-168.000         -90.000            4.191e-02           3.520e-02             264.746           6.708e-03             147.776           2.688e+00     
-167.000         -90.000            4.767e-02           4.167e-02             267.803           6.002e-03             138.836           3.599e+00     
-166.000         -90.000            4.375e-02           3.857e-02             270.926           5.177e-03             128.252           4.902e+00     
-165.000         -90.000            3.177e-02           2.738e-02             275.565           4.386e-03             115.711           8.297e+00     
-164.000         -90.000            1.736e-02           1.361e-02             285.252           3.751e-03             101.113           3.363e+01     
-163.000         -90.000            7.600e-03           4.254e-03             315.398           3.346e-03              84.840           2.142e+00     
