Theta [deg.]  Phi   [deg.]  Abs(Dir.)[      ]   Abs(Theta)[      ]  Phase(Theta)[deg.]  Abs(Phi  )[      ]  Phase(Phi  )[deg.]  Ax.Ratio[      ]    
------------------------------------------------------------------------------------------------------------------------------------------------------
-180.000         -90.000            2.340e-02           1.329e-08             290.581           2.340e-02             239.966           3.162e+02     
-179.000         -90.000            2.729e-02           4.106e-03             249.331           2.318e-02             239.289           1.598e+01     
-178.000         -90.000            3.755e-02           1.496e-02             249.351           2.259e-02             237.256           9.645e+00     
-177.000         -90.000            5.050e-02           2.877e-02             249.445           2.173e-02             233.865           7.384e+00     
-176.000         -90.000            6.147e-02           4.070e-02             249.626           2.077e-02             229.146           5.872e+00     
-175.000         -90.000            6.651e-02           4.662e-02             249.944           1.990e-02             223.189           4.636e+00     
-174.000         -90.000            6.378e-02           4.450e-02             250.494           1.927e-02             216.192           3.585e+00     
-173.000         -90.000            5.417e-02           3.516e-02             251.485           1.901e-02             208.463           2.701e+00     
-172.000         -90.000            4.100e-02           2.187e-02             253.437           1.913e-02             200.383           2.011e+00     
-171.000         -90.000            2.881e-02           9.242e-03             258.153           1.957e-02             192.318           1.789e+00     
-170.000         -90.000            2.177e-02           1.565e-03             278.319           2.021e-02             184.544           3.602e+00     
-169.000         -90.000            2.218e-02           1.344e-03              29.776           2.083e-02             177.201           7.654e+00     
-168.000         -90.000            2.969e-02           8.459e-03              52.559           2.123e-02             170.303           2.004e+00     
-167.000         -90.000            4.150e-02           2.027e-02              58.015           2.122e-02             163.775           1.323e+00     
-166.000         -90.000            5.326e-02           3.261e-02              60.840           2.065e-02             157.486           1.293e+00     
-165.000         -90.000            6.068e-02           4.121e-02              63.135           1.948e-02             151.266           1.457e+00     
-164.000         -90.000            6.097e-02           4.324e-02              65.726           1.773e-02             144.921           1.627e+00     
-163.000         -90.000            5.380e-02           3.826e-02              69.365           1.554e-02             138.219           1.815e+00     
