Theta [deg.]  Phi   [deg.]  Abs(Dir.)[      ]   Abs(Theta)[      ]  Phase(Theta)[deg.]  Abs(Phi  )[      ]  Phase(Phi  )[deg.]  Ax.Ratio[      ]    
------------------------------------------------------------------------------------------------------------------------------------------------------
-180.000         -90.000            5.680e-03           3.918e-08             329.751           5.680e-03             134.296           3.162e+02     
-179.000         -90.000            9.869e-03           4.123e-03             292.070           5.746e-03             133.028           5.487e+00     
-178.000         -90.000            2.057e-02           1.461e-02             292.147           5.965e-03             129.399           7.294e+00     
-177.000         -90.000            3.313e-02           2.674e-02             292.386           6.387e-03             123.892           1.263e+01     
-176.000         -90.000            4.214e-02           3.508e-02             292.836           7.060e-03             117.208           3.509e+01     
-175.000         -90.000            4.385e-02           3.585e-02             293.641           8.002e-03             110.067           4.151e+01     
-174.000         -90.000            3.787e-02           2.870e-02             295.148           9.167e-03             103.011           1.101e+01     
-173.000         -90.000            2.731e-02           1.687e-02             298.341           1.044e-02              96.310           5.298e+00     
-172.000         -90.000            1.744e-02           5.808e-03             307.455           1.164e-02              90.006           3.175e+00     
-171.000         -90.000            1.335e-02           7.808e-04               4.707           1.257e-02              83.995           4.093e+00     
-170.000         -90.000            1.763e-02           4.575e-03              83.105           1.306e-02              78.102           2.612e+01     
-169.000         -90.000            2.921e-02           1.622e-02              94.965           1.299e-02              72.117           4.982e+00     
-168.000         -90.000            4.370e-02           3.135e-02              99.136           1.235e-02              65.804           3.777e+00     
-167.000         -90.000            5.521e-02           4.399e-02             101.597           1.122e-02              58.902           3.368e+00     
-166.000         -90.000            5.885e-02           4.909e-02             103.768           9.756e-03              51.110           3.055e+00     
-165.000         -90.000            5.280e-02           4.463e-02             106.452           8.169e-03              42.087           2.696e+00     
-164.000         -90.000            3.918e-02           3.252e-02             110.736           6.662e-03              31.465           2.269e+00     
-163.000         -90.000            2.320e-02           1.781e-02             119.268           5.396e-03              18.962           1.872e+00     
