Theta [deg.]  Phi   [deg.]  Abs(Dir.)[      ]   Abs(Theta)[      ]  Phase(Theta)[deg.]  Abs(Phi  )[      ]  Phase(Phi  )[deg.]  Ax.Ratio[      ]    
------------------------------------------------------------------------------------------------------------------------------------------------------
-180.000         -90.000            5.700e-03           6.425e-08              65.186           5.700e-03             240.626           3.162e+02     
-179.000         -90.000            1.179e-02           6.302e-03             337.235           5.489e-03             238.394           1.185e+00     
-178.000         -90.000            2.551e-02           2.052e-02             337.424           4.986e-03             231.548           2.158e+00     
-177.000         -90.000            3.660e-02           3.209e-02             338.001           4.508e-03             220.033           3.125e+00     
-176.000         -90.000            3.679e-02           3.240e-02             339.248           4.391e-03             205.010           4.059e+00     
-175.000         -90.000            2.605e-02           2.125e-02             342.155           4.799e-03             189.397           5.452e+00     
-174.000         -90.000            1.273e-02           7.104e-03             351.426           5.631e-03             175.978           2.533e+01     
-173.000         -90.000            7.448e-03           8.942e-04              64.783           6.554e-03             165.613           2.772e+00     
-172.000         -90.000            1.517e-02           8.018e-03             131.758           7.153e-03             157.850           4.324e+00     
-171.000         -90.000            3.134e-02           2.423e-02             140.655           7.116e-03             151.987           1.207e+01     
-170.000         -90.000            4.487e-02           3.851e-02             143.910           6.362e-03             147.515           4.556e+01     
-169.000         -90.000            4.596e-02           4.089e-02             146.115           5.060e-03             144.202           9.569e+01     
-168.000         -90.000            3.313e-02           2.959e-02             148.957           3.539e-03             142.144           2.726e+01     
-167.000         -90.000            1.459e-02           1.245e-02             155.623           2.142e-03             141.934           1.186e+01     
-166.000         -90.000            2.738e-03           1.630e-03             192.754           1.108e-03             145.189           2.332e+00     
-165.000         -90.000            5.797e-03           5.289e-03             292.882           5.084e-04             155.539           5.018e+00     
-164.000         -90.000            2.224e-02           2.197e-02             307.428           2.706e-04             176.821           1.193e+01     
-163.000         -90.000            4.177e-02           4.152e-02             312.145           2.487e-04             198.957           1.407e+01     
