Theta [deg.]  Phi   [deg.]  Abs(Dir.)[      ]   Abs(Theta)[      ]  Phase(Theta)[deg.]  Abs(Phi  )[      ]  Phase(Phi  )[deg.]  Ax.Ratio[      ]    
------------------------------------------------------------------------------------------------------------------------------------------------------
-180.000         -90.000            1.844e-02           5.234e-08              13.134           1.844e-02              71.372           3.162e+02     
-179.000         -90.000            2.186e-02           3.560e-03             169.316           1.830e-02              70.512           2.307e+00     
-178.000         -90.000            3.091e-02           1.296e-02             169.458           1.795e-02              67.953           1.297e+00     
-177.000         -90.000            4.220e-02           2.472e-02             169.656           1.748e-02              63.752           1.393e+00     
-176.000         -90.000            5.151e-02           3.445e-02             169.974           1.707e-02              58.042           1.703e+00     
-175.000         -90.000            5.537e-02           3.853e-02             170.495           1.685e-02              51.072           1.994e+00     
-174.000         -90.000            5.235e-02           3.542e-02             171.374           1.693e-02              43.212           2.280e+00     
-173.000         -90.000            4.364e-02           2.629e-02             172.968           1.735e-02              34.891           2.686e+00     
-172.000         -90.000            3.260e-02           1.455e-02             176.296           1.805e-02              26.499           3.731e+00     
-171.000         -90.000            2.359e-02           4.692e-03             185.846           1.890e-02              18.300           1.153e+01     
-170.000         -90.000            2.032e-02           6.143e-04             248.948           1.971e-02              10.402           6.698e+00     
-169.000         -90.000            2.452e-02           4.235e-03             323.140           2.029e-02               2.780           3.890e+00     
-168.000         -90.000            3.525e-02           1.477e-02             334.206           2.048e-02             355.320           5.443e+00     
-167.000         -90.000            4.919e-02           2.899e-02             338.338           2.020e-02             347.858           1.221e+01     
-166.000         -90.000            6.177e-02           4.234e-02             340.915           1.943e-02             340.208           1.746e+02     
-165.000         -90.000            6.877e-02           5.051e-02             343.230           1.826e-02             332.181           1.173e+01     
-164.000         -90.000            6.777e-02           5.094e-02             345.960           1.683e-02             323.607           5.917e+00     
-163.000         -90.000            5.901e-02           4.370e-02             349.844           1.531e-02             314.355           3.656e+00     
