Theta [deg.]  Phi   [deg.]  Abs(Dir.)[      ]   Abs(Theta)[      ]  Phase(Theta)[deg.]  Abs(Phi  )[      ]  Phase(Phi  )[deg.]  Ax.Ratio[      ]    
------------------------------------------------------------------------------------------------------------------------------------------------------
-180.000         -90.000            1.863e-03           1.424e-07             169.671           1.863e-03             321.345           2.410e+02     
-179.000         -90.000            6.910e-03           4.996e-03             319.664           1.913e-03             320.365           1.826e+02     
-178.000         -90.000            1.966e-02           1.760e-02             319.926           2.066e-03             317.506           7.723e+01     
-177.000         -90.000            3.388e-02           3.156e-02             320.305           2.324e-03             313.215           3.203e+01     
-176.000         -90.000            4.269e-02           4.001e-02             320.939           2.682e-03             308.017           1.837e+01     
-175.000         -90.000            4.196e-02           3.884e-02             322.040           3.119e-03             302.330           1.121e+01     
-174.000         -90.000            3.231e-02           2.873e-02             324.109           3.588e-03             296.376           6.690e+00     
-173.000         -90.000            1.876e-02           1.474e-02             328.699           4.018e-03             290.185           3.640e+00     
-172.000         -90.000            8.118e-03           3.791e-03             343.993           4.327e-03             283.643           1.727e+00     
-171.000         -90.000            5.608e-03           1.169e-03              74.218           4.438e-03             276.509           6.332e+00     
-170.000         -90.000            1.228e-02           7.970e-03             116.562           4.312e-03             268.413           4.203e+00     
-169.000         -90.000            2.459e-02           2.063e-02             125.241           3.962e-03             258.808           3.466e+00     
-168.000         -90.000            3.625e-02           3.278e-02             129.488           3.469e-03             246.920           3.548e+00     
-167.000         -90.000            4.144e-02           3.846e-02             133.044           2.982e-03             231.815           3.641e+00     
-166.000         -90.000            3.778e-02           3.510e-02             137.474           2.684e-03             212.973           3.755e+00     
-165.000         -90.000            2.750e-02           2.474e-02             144.784           2.759e-03             191.607           4.334e+00     
-164.000         -90.000            1.642e-02           1.308e-02             159.979           3.339e-03             170.925           1.301e+01     
-163.000         -90.000            1.107e-02           6.606e-03             195.917           4.459e-03             153.525           2.646e+00     
