Theta [deg.]  Phi   [deg.]  Abs(Dir.)[      ]   Abs(Theta)[      ]  Phase(Theta)[deg.]  Abs(Phi  )[      ]  Phase(Phi  )[deg.]  Ax.Ratio[      ]    
------------------------------------------------------------------------------------------------------------------------------------------------------
-180.000         -90.000            1.482e-02           5.176e-08             314.213           1.482e-02             338.812           3.162e+02     
-179.000         -90.000            1.839e-02           3.634e-03             107.249           1.475e-02             337.861           2.905e+00     
-178.000         -90.000            2.777e-02           1.317e-02             107.428           1.460e-02             335.056           2.270e+00     
-177.000         -90.000            3.937e-02           2.491e-02             107.689           1.446e-02             330.518           2.678e+00     
-176.000         -90.000            4.872e-02           3.429e-02             108.110           1.443e-02             324.481           3.399e+00     
-175.000         -90.000            5.229e-02           3.765e-02             108.802           1.464e-02             317.307           4.442e+00     
-174.000         -90.000            4.880e-02           3.367e-02             109.982           1.513e-02             309.441           6.332e+00     
-173.000         -90.000            3.979e-02           2.391e-02             112.168           1.588e-02             301.319           1.276e+01     
-172.000         -90.000            2.901e-02           1.222e-02             116.950           1.678e-02             293.259           3.143e+01     
-171.000         -90.000            2.101e-02           3.333e-03             132.374           1.768e-02             285.420           5.869e+00     
-170.000         -90.000            1.942e-02           1.037e-03             216.809           1.838e-02             277.810           4.881e+00     
-169.000         -90.000            2.550e-02           6.769e-03             261.801           1.873e-02             270.328           1.521e+01     
-168.000         -90.000            3.763e-02           1.902e-02             270.987           1.862e-02             262.810           1.399e+01     
-167.000         -90.000            5.186e-02           3.385e-02             274.964           1.802e-02             255.058           6.002e+00     
-166.000         -90.000            6.330e-02           4.630e-02             277.623           1.700e-02             246.868           4.173e+00     
-165.000         -90.000            6.789e-02           5.218e-02             280.122           1.571e-02             238.043           3.229e+00     
-164.000         -90.000            6.393e-02           4.961e-02             283.182           1.433e-02             228.436           2.544e+00     
-163.000         -90.000            5.268e-02           3.965e-02             287.724           1.303e-02             217.990           1.960e+00     
