Theta [deg.]  Phi   [deg.]  Abs(Dir.)[      ]   Abs(Theta)[      ]  Phase(Theta)[deg.]  Abs(Phi  )[      ]  Phase(Phi  )[deg.]  Ax.Ratio[      ]    
------------------------------------------------------------------------------------------------------------------------------------------------------
-180.000         -90.000            5.068e-03           2.962e-07             127.407           5.068e-03              32.017           1.314e+02     
-179.000         -90.000            8.558e-03           3.537e-03              47.906           5.021e-03              33.537           8.059e+00     
-178.000         -90.000            1.673e-02           1.179e-02              47.847           4.937e-03              37.993           1.273e+01     
-177.000         -90.000            2.428e-02           1.933e-02              48.156           4.945e-03              44.836           4.285e+01     
-176.000         -90.000            2.641e-02           2.124e-02              48.889           5.168e-03              52.922           3.581e+01     
-175.000         -90.000            2.196e-02           1.631e-02              50.470           5.655e-03              60.746           1.274e+01     
-174.000         -90.000            1.415e-02           7.828e-03              54.480           6.323e-03              67.081           9.110e+00     
-173.000         -90.000            8.344e-03           1.365e-03              72.115           6.979e-03              71.374           2.091e+02     
-172.000         -90.000            8.431e-03           1.051e-03             190.249           7.380e-03              73.610           3.060e+00     
-171.000         -90.000            1.425e-02           6.920e-03             212.057           7.327e-03              73.999           2.610e+00     
-170.000         -90.000            2.170e-02           1.496e-02             217.391           6.739e-03              72.784           3.441e+00     
-169.000         -90.000            2.551e-02           1.983e-02             220.915           5.681e-03              70.165           4.707e+00     
-168.000         -90.000            2.278e-02           1.844e-02             225.274           4.339e-03              66.310           6.951e+00     
-167.000         -90.000            1.493e-02           1.199e-02             233.371           2.945e-03              61.396           1.795e+01     
-166.000         -90.000            6.895e-03           5.180e-03             254.023           1.715e-03              55.739           7.236e+00     
-165.000         -90.000            3.927e-03           3.140e-03             307.447           7.874e-04              50.209           2.080e+00     
-164.000         -90.000            8.252e-03           8.030e-03             348.407           2.223e-04              48.553           6.978e+00     
-163.000         -90.000            1.760e-02           1.758e-02               2.812           1.941e-05              96.884           3.017e+01     
