Theta [deg.]  Phi   [deg.]  Abs(Dir.)[      ]   Abs(Theta)[      ]  Phase(Theta)[deg.]  Abs(Phi  )[      ]  Phase(Phi  )[deg.]  Ax.Ratio[      ]    
------------------------------------------------------------------------------------------------------------------------------------------------------
-180.000         -90.000            9.728e-03           1.604e-07             180.625           9.727e-03             191.068           3.162e+02     
-179.000         -90.000            1.450e-02           4.702e-03             276.046           9.801e-03             190.807           1.458e+00     
-178.000         -90.000            2.644e-02           1.643e-02             276.326           1.001e-02             190.080           1.293e+00     
-177.000         -90.000            3.953e-02           2.922e-02             276.605           1.031e-02             188.946           1.687e+00     
-176.000         -90.000            4.721e-02           3.658e-02             277.050           1.063e-02             187.478           1.856e+00     
-175.000         -90.000            4.564e-02           3.477e-02             277.855           1.087e-02             185.752           1.791e+00     
-174.000         -90.000            3.565e-02           2.472e-02             279.475           1.093e-02             183.828           1.523e+00     
-173.000         -90.000            2.225e-02           1.157e-02             283.467           1.068e-02             181.751           1.233e+00     
-172.000         -90.000            1.216e-02           2.124e-03             300.431           1.003e-02             179.545           2.698e+00     
-171.000         -90.000            1.036e-02           1.422e-03              56.242           8.941e-03             177.220           3.064e+00     
-170.000         -90.000            1.769e-02           1.026e-02              79.868           7.431e-03             174.772           1.201e+00     
-169.000         -90.000            3.041e-02           2.479e-02              85.062           5.622e-03             172.189           2.104e+00     
-168.000         -90.000            4.209e-02           3.838e-02              87.809           3.712e-03             169.441           3.257e+00     
-167.000         -90.000            4.686e-02           4.490e-02              90.289           1.964e-03             166.471           4.937e+00     
-166.000         -90.000            4.224e-02           4.159e-02              93.580           6.556e-04             163.059           8.521e+00     
-165.000         -90.000            3.041e-02           3.038e-02              99.149           2.955e-05             155.872           3.836e+01     
-164.000         -90.000            1.712e-02           1.688e-02             110.531           2.400e-04             339.558           1.118e+01     
-163.000         -90.000            8.975e-03           7.661e-03             138.017           1.314e-03             335.032           9.561e+00     
