Theta [deg.]  Phi   [deg.]  Abs(Dir.)[      ]   Abs(Theta)[      ]  Phase(Theta)[deg.]  Abs(Phi  )[      ]  Phase(Phi  )[deg.]  Ax.Ratio[      ]    
------------------------------------------------------------------------------------------------------------------------------------------------------
-180.000         -90.000            1.433e-02           2.712e-07              58.155           1.433e-02             215.530           3.162e+02     
-179.000         -90.000            1.843e-02           4.166e-03              61.876           1.426e-02             214.921           5.078e+00     
-178.000         -90.000            2.900e-02           1.493e-02              62.097           1.407e-02             213.089           3.868e+00     
-177.000         -90.000            4.189e-02           2.814e-02              62.492           1.375e-02             210.099           3.705e+00     
-176.000         -90.000            5.204e-02           3.872e-02              63.151           1.332e-02             206.050           3.514e+00     
-175.000         -90.000            5.538e-02           4.261e-02              64.234           1.278e-02             201.059           3.152e+00     
-174.000         -90.000            5.047e-02           3.837e-02              66.069           1.210e-02             195.235           2.642e+00     
-173.000         -90.000            3.903e-02           2.775e-02              69.413           1.128e-02             188.643           2.037e+00     
-172.000         -90.000            2.526e-02           1.496e-02              76.462           1.029e-02             181.278           1.381e+00     
-171.000         -90.000            1.436e-02           5.213e-03              96.174           9.143e-03             173.012           1.442e+00     
-170.000         -90.000            1.047e-02           2.596e-03             158.069           7.876e-03             163.558           2.417e+01     
-169.000         -90.000            1.517e-02           8.583e-03             201.822           6.584e-03             152.433           2.204e+00     
-168.000         -90.000            2.684e-02           2.143e-02             214.968           5.410e-03             138.952           2.091e+00     
-167.000         -90.000            4.135e-02           3.682e-02             220.753           4.526e-03             122.445           2.891e+00     
-166.000         -90.000            5.355e-02           4.944e-02             224.329           4.111e-03             102.971           4.158e+00     
-165.000         -90.000            5.924e-02           5.493e-02             227.369           4.309e-03              82.257           6.580e+00     
-164.000         -90.000            5.669e-02           5.149e-02             230.812           5.199e-03              63.043           1.629e+01     
-163.000         -90.000            4.731e-02           4.054e-02             235.745           6.766e-03              46.974           1.868e+01     
