Theta [deg.]  Phi   [deg.]  Abs(Dir.)[      ]   Abs(Theta)[      ]  Phase(Theta)[deg.]  Abs(Phi  )[      ]  Phase(Phi  )[deg.]  Ax.Ratio[      ]    
------------------------------------------------------------------------------------------------------------------------------------------------------
-180.000         -90.000            3.540e-02           2.121e-07             265.068           3.540e-02             313.213           3.162e+02     
-179.000         -90.000            3.881e-02           3.880e-03             255.410           3.493e-02             312.721           3.690e+00     
-178.000         -90.000            4.798e-02           1.440e-02             255.540           3.358e-02             311.224           2.184e+00     
-177.000         -90.000            6.034e-02           2.883e-02             255.758           3.150e-02             308.669           2.013e+00     
-176.000         -90.000            7.235e-02           4.344e-02             256.103           2.890e-02             304.967           2.270e+00     
-175.000         -90.000            8.051e-02           5.445e-02             256.627           2.605e-02             300.005           2.748e+00     
-174.000         -90.000            8.229e-02           5.905e-02             257.421           2.324e-02             293.663           3.469e+00     
-173.000         -90.000            7.682e-02           5.609e-02             258.643           2.073e-02             285.857           4.714e+00     
-172.000         -90.000            6.517e-02           4.641e-02             260.599           1.875e-02             276.612           7.880e+00     
-171.000         -90.000            5.010e-02           3.262e-02             263.971           1.748e-02             266.148           5.522e+01     
-170.000         -90.000            3.537e-02           1.838e-02             270.492           1.699e-02             254.915           7.317e+00     
-169.000         -90.000            2.480e-02           7.513e-03             286.161           1.729e-02             243.508           2.862e+00     
-168.000         -90.000            2.131e-02           3.029e-03             331.789           1.828e-02             232.481           2.502e+00     
-167.000         -90.000            2.616e-02           6.342e-03              24.188           1.982e-02             222.190           7.416e+00     
-166.000         -90.000            3.864e-02           1.694e-02              43.258           2.171e-02             212.758           1.097e+01     
-165.000         -90.000            5.623e-02           3.251e-02              51.148           2.372e-02             204.142           4.222e+00     
-164.000         -90.000            7.520e-02           4.954e-02              55.549           2.565e-02             196.211           2.993e+00     
-163.000         -90.000            9.150e-02           6.420e-02              58.661           2.730e-02             188.815           2.452e+00     
