Theta [deg.]  Phi   [deg.]  Abs(Dir.)[      ]   Abs(Theta)[      ]  Phase(Theta)[deg.]  Abs(Phi  )[      ]  Phase(Phi  )[deg.]  Ax.Ratio[      ]    
------------------------------------------------------------------------------------------------------------------------------------------------------
-180.000         -90.000            1.173e-02           3.359e-07             130.397           1.173e-02             203.846           1.949e+02     
-179.000         -90.000            1.655e-02           4.819e-03             171.149           1.173e-02             203.493           3.855e+00     
-178.000         -90.000            2.879e-02           1.706e-02             171.530           1.173e-02             202.433           3.692e+00     
-177.000         -90.000            4.310e-02           3.139e-02             172.005           1.171e-02             200.700           4.458e+00     
-176.000         -90.000            5.322e-02           4.161e-02             172.753           1.161e-02             198.343           5.422e+00     
-175.000         -90.000            5.472e-02           4.334e-02             173.994           1.138e-02             195.411           6.596e+00     
-174.000         -90.000            4.688e-02           3.593e-02             176.181           1.095e-02             191.936           8.588e+00     
-173.000         -90.000            3.302e-02           2.275e-02             180.472           1.026e-02             187.918           1.661e+01     
-172.000         -90.000            1.896e-02           9.669e-03             190.988           9.290e-03             183.315           1.492e+01     
-171.000         -90.000            1.053e-02           2.498e-03             229.665           8.033e-03             178.004           2.615e+00     
-170.000         -90.000            1.100e-02           4.457e-03             301.257           6.547e-03             171.731           2.183e+00     
-169.000         -90.000            1.975e-02           1.480e-02             323.067           4.946e-03             163.991           6.304e+00     
-168.000         -90.000            3.259e-02           2.919e-02             330.692           3.393e-03             153.730           6.176e+01     
-167.000         -90.000            4.365e-02           4.157e-02             334.942           2.085e-03             138.638           1.664e+01     
-166.000         -90.000            4.806e-02           4.683e-02             338.426           1.230e-03             113.990           8.934e+00     
-165.000         -90.000            4.398e-02           4.298e-02             342.451           1.008e-03              77.138           6.552e+00     
-164.000         -90.000            3.346e-02           3.192e-02             348.547           1.542e-03              42.826           5.700e+00     
-163.000         -90.000            2.155e-02           1.868e-02             359.992           2.862e-03              21.083           8.063e+00     
