Theta [deg.]  Phi   [deg.]  Abs(Dir.)[      ]   Abs(Theta)[      ]  Phase(Theta)[deg.]  Abs(Phi  )[      ]  Phase(Phi  )[deg.]  Ax.Ratio[      ]    
------------------------------------------------------------------------------------------------------------------------------------------------------
-180.000         -90.000            6.285e-02           9.903e-08             318.461           6.285e-02             157.430           3.162e+02     
-179.000         -90.000            6.390e-02           1.944e-03             268.229           6.196e-02             156.994           6.083e+00     
-178.000         -90.000            6.669e-02           7.342e-03             268.283           5.935e-02             155.665           3.143e+00     
-177.000         -90.000            7.042e-02           1.512e-02             268.571           5.529e-02             153.382           2.246e+00     
-176.000         -90.000            7.397e-02           2.375e-02             269.057           5.022e-02             150.042           1.932e+00     
-175.000         -90.000            7.616e-02           3.151e-02             269.779           4.465e-02             145.502           1.942e+00     
-174.000         -90.000            7.603e-02           3.690e-02             270.811           3.913e-02             139.598           2.207e+00     
-173.000         -90.000            7.308e-02           3.890e-02             272.277           3.418e-02             132.188           2.762e+00     
-172.000         -90.000            6.744e-02           3.718e-02             274.383           3.027e-02             123.239           3.910e+00     
-171.000         -90.000            5.987e-02           3.219e-02             277.495           2.768e-02             112.946           7.393e+00     
-170.000         -90.000            5.165e-02           2.506e-02             282.303           2.659e-02             101.816           2.357e+02     
-169.000         -90.000            4.435e-02           1.737e-02             290.158           2.698e-02              90.577           5.945e+00     
-168.000         -90.000            3.955e-02           1.087e-02             303.872           2.867e-02              79.920           2.880e+00     
-167.000         -90.000            3.848e-02           7.106e-03             327.779           3.137e-02              70.275           2.181e+00     
-166.000         -90.000            4.182e-02           7.125e-03             359.481           3.470e-02              61.764           2.624e+00     
-165.000         -90.000            4.950e-02           1.128e-02              24.448           3.821e-02              54.300           4.570e+00     
-164.000         -90.000            6.066e-02           1.915e-02              39.084           4.151e-02              47.708           1.428e+01     
-163.000         -90.000            7.381e-02           2.959e-02              47.702           4.421e-02              41.794           1.977e+01     
