Theta [deg.]  Phi   [deg.]  Abs(Dir.)[      ]   Abs(Theta)[      ]  Phase(Theta)[deg.]  Abs(Phi  )[      ]  Phase(Phi  )[deg.]  Ax.Ratio[      ]    
------------------------------------------------------------------------------------------------------------------------------------------------------
-180.000         -90.000            5.746e-02           1.405e-07             247.714           5.746e-02              61.837           3.162e+02     
-179.000         -90.000            5.897e-02           2.307e-03             210.198           5.667e-02              61.382           9.859e+00     
-178.000         -90.000            6.304e-02           8.692e-03             210.275           5.435e-02              59.993           5.675e+00     
-177.000         -90.000            6.862e-02           1.785e-02             210.560           5.076e-02              57.609           4.804e+00     
-176.000         -90.000            7.422e-02           2.794e-02             211.032           4.628e-02              54.132           5.064e+00     
-175.000         -90.000            7.828e-02           3.690e-02             211.730           4.137e-02              49.432           6.433e+00     
-174.000         -90.000            7.952e-02           4.298e-02             212.725           3.654e-02              43.363           1.078e+01     
-173.000         -90.000            7.724e-02           4.500e-02             214.139           3.224e-02              35.817           6.926e+01     
-172.000         -90.000            7.153e-02           4.265e-02             216.174           2.888e-02              26.800           1.243e+01     
-171.000         -90.000            6.326e-02           3.653e-02             219.186           2.673e-02              16.546           5.062e+00     
-170.000         -90.000            5.396e-02           2.804e-02             223.858           2.592e-02               5.561           2.883e+00     
-169.000         -90.000            4.547e-02           1.904e-02             231.546           2.643e-02             354.519           1.886e+00     
-168.000         -90.000            3.963e-02           1.154e-02             245.178           2.809e-02             344.038           1.605e+00     
-167.000         -90.000            3.784e-02           7.199e-03             269.628           3.064e-02             334.491           2.397e+00     
-166.000         -90.000            4.080e-02           7.084e-03             302.792           3.371e-02             325.981           6.552e+00     
-165.000         -90.000            4.833e-02           1.139e-02             328.517           3.694e-02             318.432           1.338e+01     
-164.000         -90.000            5.937e-02           1.944e-02             343.217           3.993e-02             311.685           3.812e+00     
-163.000         -90.000            7.217e-02           2.981e-02             351.788           4.237e-02             305.567           2.396e+00     
