Theta [deg.]  Phi   [deg.]  Abs(Dir.)[      ]   Abs(Theta)[      ]  Phase(Theta)[deg.]  Abs(Phi  )[      ]  Phase(Phi  )[deg.]  Ax.Ratio[      ]    
------------------------------------------------------------------------------------------------------------------------------------------------------
-180.000         -90.000            1.326e-02           3.153e-07             348.178           1.326e-02             122.956           2.889e+02     
-179.000         -90.000            1.758e-02           4.352e-03             359.752           1.323e-02             122.409           2.321e+00     
-178.000         -90.000            2.867e-02           1.553e-02               0.025           1.313e-02             120.756           1.770e+00     
-177.000         -90.000            4.205e-02           2.909e-02               0.464           1.295e-02             118.065           1.924e+00     
-176.000         -90.000            5.233e-02           3.964e-02               1.183           1.268e-02             114.439           2.053e+00     
-175.000         -90.000            5.531e-02           4.302e-02               2.365           1.228e-02             109.985           2.032e+00     
-174.000         -90.000            4.967e-02           3.795e-02               4.385           1.172e-02             104.795           1.856e+00     
-173.000         -90.000            3.754e-02           2.659e-02               8.126           1.095e-02              98.905           1.558e+00     
-172.000         -90.000            2.357e-02           1.361e-02              16.269           9.955e-03              92.277           1.340e+00     
-171.000         -90.000            1.320e-02           4.461e-03              40.276           8.739e-03              84.742           2.639e+00     
-170.000         -90.000            1.048e-02           3.114e-03             106.295           7.361e-03              75.963           4.088e+00     
-169.000         -90.000            1.647e-02           1.053e-02             142.425           5.937e-03              65.347           1.445e+00     
-168.000         -90.000            2.890e-02           2.427e-02             153.793           4.627e-03              51.970           2.363e+00     
-167.000         -90.000            4.304e-02           3.942e-02             159.134           3.626e-03              34.697           4.123e+00     
-166.000         -90.000            5.356e-02           5.044e-02             162.644           3.121e-03              13.149           8.289e+00     
-165.000         -90.000            5.667e-02           5.340e-02             165.836           3.263e-03             349.591           6.552e+01     
-164.000         -90.000            5.149e-02           4.736e-02             169.705           4.131e-03             328.208           9.945e+00     
-163.000         -90.000            4.047e-02           3.477e-02             175.624           5.706e-03             311.144           3.841e+00     
