Theta [deg.]  Phi   [deg.]  Abs(Dir.)[      ]   Abs(Theta)[      ]  Phase(Theta)[deg.]  Abs(Phi  )[      ]  Phase(Phi  )[deg.]  Ax.Ratio[      ]    
------------------------------------------------------------------------------------------------------------------------------------------------------
-180.000         -90.000            2.951e-03           8.697e-08             234.763           2.951e-03              50.924           3.162e+02     
-179.000         -90.000            4.008e-03           1.316e-03             287.383           2.693e-03              51.569           2.098e+00     
-178.000         -90.000            6.276e-03           4.252e-03             287.511           2.024e-03              53.942           2.206e+00     
-177.000         -90.000            7.844e-03           6.623e-03             287.408           1.221e-03              59.976           3.456e+00     
-176.000         -90.000            7.302e-03           6.702e-03             287.129           5.993e-04              75.334           6.767e+00     
-175.000         -90.000            4.860e-03           4.493e-03             286.550           3.672e-04             108.815           9.574e+01     
-174.000         -90.000            2.190e-03           1.633e-03             284.879           5.570e-04             140.615           3.658e+00     
-173.000         -90.000            1.110e-03           6.855e-05             268.329           1.041e-03             152.111           4.404e+00     
-172.000         -90.000            2.197e-03           5.717e-04             116.865           1.626e-03             152.250           3.663e+00     
-171.000         -90.000            4.417e-03           2.269e-03             114.388           2.147e-03             146.552           3.470e+00     
-170.000         -90.000            6.031e-03           3.489e-03             115.885           2.542e-03             137.106           5.410e+00     
-169.000         -90.000            6.013e-03           3.180e-03             120.813           2.833e-03             125.091           2.681e+01     
-168.000         -90.000            4.846e-03           1.768e-03             134.109           3.077e-03             111.638           5.244e+00     
-167.000         -90.000            4.060e-03           7.635e-04             175.551           3.296e-03              97.956           2.157e+00     
-166.000         -90.000            4.936e-03           1.494e-03             231.002           3.442e-03              85.096           3.606e+00     
-165.000         -90.000            7.387e-03           3.974e-03             251.733           3.413e-03              73.773           5.632e+01     
-164.000         -90.000            9.940e-03           6.827e-03             260.445           3.113e-03              64.468           7.704e+00     
-163.000         -90.000            1.079e-02           8.266e-03             266.408           2.520e-03              57.807           4.725e+00     
