Theta [deg.]  Phi   [deg.]  Abs(Dir.)[      ]   Abs(Theta)[      ]  Phase(Theta)[deg.]  Abs(Phi  )[      ]  Phase(Phi  )[deg.]  Ax.Ratio[      ]    
------------------------------------------------------------------------------------------------------------------------------------------------------
-180.000         -90.000            2.702e-02           1.211e-07              59.431           2.702e-02              40.240           3.162e+02     
-179.000         -90.000            3.031e-02           3.672e-03              68.350           2.664e-02              39.679           6.227e+00     
-178.000         -90.000            3.905e-02           1.350e-02              68.494           2.555e-02              37.997           3.886e+00     
-177.000         -90.000            5.039e-02           2.652e-02              68.726           2.387e-02              35.145           3.320e+00     
-176.000         -90.000            6.061e-02           3.882e-02              69.100           2.180e-02              31.040           3.053e+00     
-175.000         -90.000            6.625e-02           4.669e-02              69.686           1.956e-02              25.586           2.792e+00     
-174.000         -90.000            6.518e-02           4.780e-02              70.612           1.739e-02              18.693           2.467e+00     
-173.000         -90.000            5.732e-02           4.184e-02              72.125           1.548e-02              10.327           2.074e+00     
-172.000         -90.000            4.468e-02           3.070e-02              74.772           1.398e-02               0.571           1.626e+00     
-171.000         -90.000            3.078e-02           1.779e-02              79.950           1.299e-02             349.684           1.171e+00     
-170.000         -90.000            1.966e-02           7.149e-03              92.720           1.251e-02             338.088           1.698e+00     
-169.000         -90.000            1.468e-02           2.171e-03             136.740           1.251e-02             326.275           1.695e+01     
-168.000         -90.000            1.755e-02           4.630e-03             199.225           1.292e-02             314.664           2.017e+00     
-167.000         -90.000            2.777e-02           1.415e-02             218.929           1.362e-02             303.507           1.101e+00     
-166.000         -90.000            4.282e-02           2.831e-02             226.253           1.452e-02             292.887           1.720e+00     
-165.000         -90.000            5.887e-02           4.335e-02             230.150           1.552e-02             282.777           2.448e+00     
-164.000         -90.000            7.182e-02           5.527e-02             232.862           1.655e-02             273.106           3.380e+00     
-163.000         -90.000            7.848e-02           6.091e-02             235.334           1.757e-02             263.801           4.826e+00     
