Theta [deg.]  Phi   [deg.]  Abs(Dir.)[      ]   Abs(Theta)[      ]  Phase(Theta)[deg.]  Abs(Phi  )[      ]  Phase(Phi  )[deg.]  Ax.Ratio[      ]    
------------------------------------------------------------------------------------------------------------------------------------------------------
-180.000         -90.000            2.967e-02           1.516e-07             120.203           2.967e-02             130.669           3.162e+02     
-179.000         -90.000            3.301e-02           3.762e-03             129.963           2.925e-02             130.138           3.162e+02     
-178.000         -90.000            4.194e-02           1.388e-02             130.106           2.806e-02             128.541           7.781e+01     
-177.000         -90.000            5.367e-02           2.744e-02             130.330           2.623e-02             125.823           2.542e+01     
-176.000         -90.000            6.452e-02           4.056e-02             130.683           2.396e-02             121.896           1.347e+01     
-175.000         -90.000            7.098e-02           4.949e-02             131.233           2.149e-02             116.648           8.526e+00     
-174.000         -90.000            7.077e-02           5.170e-02             132.090           1.908e-02             109.967           5.812e+00     
-173.000         -90.000            6.354e-02           4.659e-02             133.466           1.695e-02             101.787           4.059e+00     
-172.000         -90.000            5.099e-02           3.570e-02             135.809           1.528e-02              92.162           2.806e+00     
-171.000         -90.000            3.643e-02           2.223e-02             140.174           1.420e-02              81.343           1.858e+00     
-170.000         -90.000            2.391e-02           1.017e-02             150.009           1.374e-02              69.783           1.257e+00     
-169.000         -90.000            1.701e-02           3.131e-03             180.506           1.388e-02              58.047           2.685e+00     
-168.000         -90.000            1.791e-02           3.386e-03             247.165           1.452e-02              46.633           7.141e+00     
-167.000         -90.000            2.673e-02           1.119e-02             275.780           1.554e-02              35.842           1.780e+00     
-166.000         -90.000            4.152e-02           2.472e-02             285.424           1.680e-02              25.764           1.304e+00     
-165.000         -90.000            5.875e-02           4.061e-02             290.124           1.814e-02              16.347           1.504e+00     
-164.000         -90.000            7.429e-02           5.484e-02             293.134           1.945e-02               7.475           1.810e+00     
-163.000         -90.000            8.446e-02           6.384e-02             295.633           2.063e-02             359.018           2.135e+00     
