Theta [deg.]  Phi   [deg.]  Abs(Dir.)[      ]   Abs(Theta)[      ]  Phase(Theta)[deg.]  Abs(Phi  )[      ]  Phase(Phi  )[deg.]  Ax.Ratio[      ]    
------------------------------------------------------------------------------------------------------------------------------------------------------
-180.000         -90.000            2.491e-02           4.145e-08             250.610           2.491e-02             354.231           3.162e+02     
-179.000         -90.000            2.720e-02           2.732e-03             176.414           2.447e-02             353.581           6.729e+01     
-178.000         -90.000            3.358e-02           1.036e-02             176.475           2.322e-02             351.588           2.538e+01     
-177.000         -90.000            4.271e-02           2.136e-02             176.700           2.135e-02             348.126           1.334e+01     
-176.000         -90.000            5.268e-02           3.355e-02             177.073           1.914e-02             342.989           8.426e+00     
-175.000         -90.000            6.142e-02           4.450e-02             177.625           1.692e-02             335.932           5.886e+00     
-174.000         -90.000            6.714e-02           5.209e-02             178.416           1.506e-02             326.768           4.339e+00     
-173.000         -90.000            6.873e-02           5.485e-02             179.541           1.388e-02             315.581           3.284e+00     
-172.000         -90.000            6.599e-02           5.235e-02             181.162           1.364e-02             302.971           2.507e+00     
-171.000         -90.000            5.969e-02           4.518e-02             183.563           1.451e-02             290.032           1.906e+00     
-170.000         -90.000            5.143e-02           3.489e-02             187.289           1.654e-02             277.889           1.453e+00     
-169.000         -90.000            4.329e-02           2.366e-02             193.443           1.963e-02             267.207           1.353e+00     
-168.000         -90.000            3.743e-02           1.381e-02             204.618           2.361e-02             258.105           2.103e+00     
-167.000         -90.000            3.562e-02           7.435e-03             226.674           2.819e-02             250.387           5.951e+00     
-166.000         -90.000            3.892e-02           5.908e-03             263.402           3.302e-02             243.761           8.169e+00     
-165.000         -90.000            4.740e-02           9.678e-03             295.130           3.772e-02             237.959           2.562e+00     
-164.000         -90.000            6.011e-02           1.817e-02             312.111           4.194e-02             232.759           1.585e+00     
-163.000         -90.000            7.525e-02           2.991e-02             321.248           4.534e-02             227.993           1.241e+00     
