Theta [deg.]  Phi   [deg.]  Abs(Dir.)[      ]   Abs(Theta)[      ]  Phase(Theta)[deg.]  Abs(Phi  )[      ]  Phase(Phi  )[deg.]  Ax.Ratio[      ]    
------------------------------------------------------------------------------------------------------------------------------------------------------
-180.000         -90.000            2.373e-02           5.491e-08             326.295           2.373e-02              88.955           3.162e+02     
-179.000         -90.000            2.550e-02           2.192e-03             235.120           2.331e-02              88.315           6.359e+00     
-178.000         -90.000            3.044e-02           8.340e-03             235.160           2.210e-02              86.342           4.086e+00     
-177.000         -90.000            3.756e-02           1.727e-02             235.406           2.029e-02              82.908           4.101e+00     
-176.000         -90.000            4.543e-02           2.729e-02             235.825           1.814e-02              77.800           5.267e+00     
-175.000         -90.000            5.248e-02           3.649e-02             236.447           1.599e-02              70.757           8.676e+00     
-174.000         -90.000            5.734e-02           4.317e-02             237.327           1.417e-02              61.572           3.129e+01     
-173.000         -90.000            5.912e-02           4.610e-02             238.567           1.302e-02              50.315           1.675e+01     
-172.000         -90.000            5.758e-02           4.479e-02             240.329           1.278e-02              37.592           6.060e+00     
-171.000         -90.000            5.323e-02           3.961e-02             242.891           1.362e-02              24.537           3.399e+00     
-170.000         -90.000            4.724e-02           3.166e-02             246.770           1.558e-02              12.322           2.149e+00     
-169.000         -90.000            4.117e-02           2.259e-02             252.953           1.858e-02               1.633           1.414e+00     
-168.000         -90.000            3.673e-02           1.427e-02             263.557           2.246e-02             352.579           1.255e+00     
-167.000         -90.000            3.541e-02           8.484e-03             282.811           2.693e-02             344.947           2.194e+00     
-166.000         -90.000            3.818e-02           6.517e-03             313.813           3.166e-02             338.431           6.220e+00     
-165.000         -90.000            4.528e-02           8.981e-03             344.484           3.629e-02             332.750           1.225e+01     
-164.000         -90.000            5.615e-02           1.568e-02               3.488           4.048e-02             327.676           3.526e+00     
-163.000         -90.000            6.953e-02           2.564e-02              14.276           4.389e-02             323.039           2.204e+00     
