Theta [deg.]  Phi   [deg.]  Abs(Dir.)[      ]   Abs(Theta)[      ]  Phase(Theta)[deg.]  Abs(Phi  )[      ]  Phase(Phi  )[deg.]  Ax.Ratio[      ]    
------------------------------------------------------------------------------------------------------------------------------------------------------
-180.000         -90.000            1.889e-02           4.053e-08             124.048           1.889e-02             312.021           3.162e+02     
-179.000         -90.000            2.334e-02           4.618e-03               4.981           1.872e-02             311.604           2.766e+00     
-178.000         -90.000            3.453e-02           1.634e-02               5.061           1.819e-02             310.368           1.938e+00     
-177.000         -90.000            4.700e-02           2.969e-02               5.342           1.732e-02             308.333           1.962e+00     
-176.000         -90.000            5.455e-02           3.843e-02               5.878           1.612e-02             305.525           2.029e+00     
-175.000         -90.000            5.310e-02           3.848e-02               6.853           1.462e-02             301.964           1.963e+00     
-174.000         -90.000            4.271e-02           2.984e-02               8.708           1.287e-02             297.648           1.724e+00     
-173.000         -90.000            2.750e-02           1.659e-02              12.769           1.091e-02             292.525           1.312e+00     
-172.000         -90.000            1.392e-02           5.094e-03              25.219           8.829e-03             286.445           1.372e+00     
-171.000         -90.000            7.775e-03           1.043e-03              99.542           6.732e-03             279.069           3.162e+02     
-170.000         -90.000            1.161e-02           6.848e-03             156.969           4.763e-03             269.695           1.565e+00     
-169.000         -90.000            2.361e-02           2.052e-02             167.380           3.088e-03             256.847           2.578e+00     
-168.000         -90.000            3.841e-02           3.654e-02             171.659           1.876e-03             237.561           4.878e+00     
-167.000         -90.000            4.958e-02           4.830e-02             174.595           1.275e-03             208.108           1.135e+01     
-166.000         -90.000            5.242e-02           5.104e-02             177.619           1.380e-03             173.241           8.182e+01     
-165.000         -90.000            4.612e-02           4.392e-02             181.819           2.205e-03             146.168           7.915e+00     
-164.000         -90.000            3.403e-02           3.036e-02             188.993           3.669e-03             128.387           3.407e+00     
-163.000         -90.000            2.216e-02           1.657e-02             203.547           5.597e-03             115.912           1.723e+00     
