Theta [deg.]  Phi   [deg.]  Abs(Dir.)[      ]   Abs(Theta)[      ]  Phase(Theta)[deg.]  Abs(Phi  )[      ]  Phase(Phi  )[deg.]  Ax.Ratio[      ]    
------------------------------------------------------------------------------------------------------------------------------------------------------
-180.000         -90.000            1.798e-02           6.040e-08              40.592           1.798e-02             217.373           3.162e+02     
-179.000         -90.000            2.230e-02           4.446e-03             298.907           1.785e-02             216.972           2.037e+00     
-178.000         -90.000            3.307e-02           1.563e-02             298.947           1.744e-02             215.779           1.140e+00     
-177.000         -90.000            4.487e-02           2.813e-02             299.200           1.674e-02             213.828           1.312e+00     
-176.000         -90.000            5.160e-02           3.584e-02             299.709           1.576e-02             211.166           1.509e+00     
-175.000         -90.000            4.950e-02           3.502e-02             300.663           1.448e-02             207.840           1.560e+00     
-174.000         -90.000            3.899e-02           2.607e-02             302.541           1.292e-02             203.875           1.468e+00     
-173.000         -90.000            2.448e-02           1.339e-02             306.890           1.109e-02             199.251           1.387e+00     
-172.000         -90.000            1.240e-02           3.329e-03             322.214           9.072e-03             193.860           2.473e+00     
-171.000         -90.000            8.108e-03           1.150e-03              57.588           6.959e-03             187.429           3.443e+00     
-170.000         -90.000            1.341e-02           8.501e-03              96.126           4.905e-03             179.361           1.350e+00     
-169.000         -90.000            2.572e-02           2.262e-02             103.763           3.096e-03             168.323           3.078e+00     
-168.000         -90.000            3.928e-02           3.755e-02             107.294           1.729e-03             151.189           6.886e+00     
-167.000         -90.000            4.792e-02           4.694e-02             110.016           9.732e-04             121.747           3.484e+01     
-166.000         -90.000            4.782e-02           4.688e-02             113.146           9.375e-04              81.020           1.349e+01     
-165.000         -90.000            3.935e-02           3.771e-02             117.888           1.637e-03              49.649           5.200e+00     
-164.000         -90.000            2.685e-02           2.387e-02             126.637           2.979e-03              31.021           2.848e+00     
-163.000         -90.000            1.665e-02           1.187e-02             145.850           4.774e-03              18.722           2.347e+00     
