Theta [deg.]  Phi   [deg.]  Abs(Dir.)[      ]   Abs(Theta)[      ]  Phase(Theta)[deg.]  Abs(Phi  )[      ]  Phase(Phi  )[deg.]  Ax.Ratio[      ]    
------------------------------------------------------------------------------------------------------------------------------------------------------
-180.000         -90.000            2.276e-02           7.186e-09             132.991           2.276e-02             340.999           3.162e+02     
-179.000         -90.000            2.550e-02           3.258e-03              39.553           2.224e-02             340.350           3.172e+00     
-178.000         -90.000            3.279e-02           1.204e-02              39.671           2.075e-02             338.338           1.813e+00     
-177.000         -90.000            4.218e-02           2.367e-02              39.958           1.851e-02             334.800           1.593e+00     
-176.000         -90.000            5.046e-02           3.462e-02              40.439           1.584e-02             329.440           1.686e+00     
-175.000         -90.000            5.469e-02           4.155e-02              41.197           1.314e-02             321.827           1.837e+00     
-174.000         -90.000            5.316e-02           4.237e-02              42.390           1.079e-02             311.466           1.982e+00     
-173.000         -90.000            4.599e-02           3.687e-02              44.328           9.127e-03             298.074           2.146e+00     
-172.000         -90.000            3.520e-02           2.681e-02              47.707           8.389e-03             282.167           2.481e+00     
-171.000         -90.000            2.406e-02           1.538e-02              54.338           8.687e-03             265.408           3.769e+00     
-170.000         -90.000            1.629e-02           6.282e-03              70.624           1.000e-02             249.777           1.388e+02     
-169.000         -90.000            1.484e-02           2.641e-03             118.503           1.220e-02             236.330           2.567e+00     
-168.000         -90.000            2.110e-02           6.040e-03             169.629           1.506e-02             225.062           2.240e+00     
-167.000         -90.000            3.437e-02           1.606e-02             187.590           1.831e-02             215.500           4.034e+00     
-166.000         -90.000            5.201e-02           3.036e-02             195.056           2.165e-02             207.134           9.591e+00     
-165.000         -90.000            7.016e-02           4.534e-02             199.243           2.482e-02             199.561           3.162e+02     
-164.000         -90.000            8.477e-02           5.717e-02             202.233           2.760e-02             192.496           1.254e+01     
-163.000         -90.000            9.262e-02           6.280e-02             204.963           2.982e-02             185.750           6.346e+00     
