Theta [deg.]  Phi   [deg.]  Abs(Dir.)[      ]   Abs(Theta)[      ]  Phase(Theta)[deg.]  Abs(Phi  )[      ]  Phase(Phi  )[deg.]  Ax.Ratio[      ]    
------------------------------------------------------------------------------------------------------------------------------------------------------
-180.000         -90.000            4.825e-03           9.944e-07             120.641           4.824e-03              59.299           7.938e+01     
-179.000         -90.000            6.161e-03           1.461e-03             248.480           4.700e-03              60.855           1.766e+01     
-178.000         -90.000            9.225e-03           4.828e-03             249.547           4.397e-03              65.440           2.792e+01     
-177.000         -90.000            1.164e-02           7.561e-03             250.728           4.081e-03              72.654           6.233e+01     
-176.000         -90.000            1.150e-02           7.604e-03             252.802           3.900e-03              81.335           1.417e+01     
-175.000         -90.000            8.843e-03           4.953e-03             257.326           3.890e-03              89.562           9.399e+00     
-174.000         -90.000            5.633e-03           1.691e-03             271.278           3.942e-03              95.471           2.981e+01     
-173.000         -90.000            4.331e-03           4.570e-04             343.603           3.874e-03              97.914           3.266e+00     
-172.000         -90.000            6.016e-03           2.463e-03              37.034           3.553e-03              96.244           1.817e+00     
-171.000         -90.000            9.536e-03           6.543e-03              47.900           2.994e-03              89.696           2.887e+00     
-170.000         -90.000            1.232e-02           9.933e-03              52.428           2.383e-03              77.044           5.908e+00     
-169.000         -90.000            1.225e-02           1.026e-02              55.776           1.987e-03              57.501           9.008e+01     
-168.000         -90.000            9.278e-03           7.269e-03              60.237           2.009e-03              33.741           5.252e+00     
-167.000         -90.000            5.524e-03           3.050e-03              70.430           2.473e-03              11.694           1.796e+00     
-166.000         -90.000            3.800e-03           6.074e-04             115.901           3.193e-03             354.121           2.861e+00     
-165.000         -90.000            5.574e-03           1.727e-03             194.282           3.847e-03             340.000           3.558e+00     
-164.000         -90.000            9.843e-03           5.713e-03             211.864           4.130e-03             327.586           1.639e+00     
-163.000         -90.000            1.375e-02           9.867e-03             218.975           3.880e-03             315.427           1.618e+00     
