Theta [deg.]  Phi   [deg.]  Abs(Dir.)[      ]   Abs(Theta)[      ]  Phase(Theta)[deg.]  Abs(Phi  )[      ]  Phase(Phi  )[deg.]  Ax.Ratio[      ]    
------------------------------------------------------------------------------------------------------------------------------------------------------
-180.000         -90.000            2.548e-02           2.712e-08             178.916           2.548e-02             260.227           3.162e+02     
-179.000         -90.000            2.833e-02           3.305e-03             114.459           2.503e-02             259.571           5.256e+00     
-178.000         -90.000            3.624e-02           1.250e-02             114.543           2.374e-02             257.568           3.184e+00     
-177.000         -90.000            4.745e-02           2.564e-02             114.755           2.181e-02             254.090           2.710e+00     
-176.000         -90.000            5.950e-02           3.997e-02             115.098           1.953e-02             248.929           2.562e+00     
-175.000         -90.000            6.974e-02           5.249e-02             115.606           1.725e-02             241.834           2.468e+00     
-174.000         -90.000            7.595e-02           6.063e-02             116.337           1.532e-02             232.614           2.354e+00     
-173.000         -90.000            7.684e-02           6.273e-02             117.388           1.410e-02             221.345           2.209e+00     
-172.000         -90.000            7.231e-02           5.847e-02             118.927           1.385e-02             208.630           2.055e+00     
-171.000         -90.000            6.355e-02           4.883e-02             121.263           1.473e-02             195.571           1.949e+00     
-170.000         -90.000            5.274e-02           3.595e-02             124.990           1.678e-02             183.316           2.030e+00     
-169.000         -90.000            4.258e-02           2.264e-02             131.479           1.994e-02             172.533           2.678e+00     
-168.000         -90.000            3.574e-02           1.175e-02             144.316           2.399e-02             163.342           6.373e+00     
-167.000         -90.000            3.429e-02           5.647e-03             172.788           2.865e-02             155.542           8.983e+00     
-166.000         -90.000            3.922e-02           5.678e-03             217.512           3.354e-02             148.839           2.677e+00     
-165.000         -90.000            5.023e-02           1.193e-02             246.102           3.830e-02             142.959           1.881e+00     
-164.000         -90.000            6.577e-02           2.324e-02             259.250           4.253e-02             137.678           1.940e+00     
-163.000         -90.000            8.333e-02           3.743e-02             266.260           4.590e-02             132.827           2.341e+00     
