Theta [deg.]  Phi   [deg.]  Abs(Dir.)[      ]   Abs(Theta)[      ]  Phase(Theta)[deg.]  Abs(Phi  )[      ]  Phase(Phi  )[deg.]  Ax.Ratio[      ]    
------------------------------------------------------------------------------------------------------------------------------------------------------
-180.000         -90.000            2.200e-02           9.785e-09              57.870           2.200e-02             250.881           3.162e+02     
-179.000         -90.000            2.487e-02           3.363e-03             340.088           2.150e-02             250.237           2.529e+00     
-178.000         -90.000            3.246e-02           1.238e-02             340.229           2.007e-02             248.239           1.276e+00     
-177.000         -90.000            4.213e-02           2.422e-02             340.564           1.792e-02             244.735           1.200e+00     
-176.000         -90.000            5.047e-02           3.513e-02             341.125           1.535e-02             239.450           1.591e+00     
-175.000         -90.000            5.441e-02           4.169e-02             342.008           1.272e-02             231.981           2.020e+00     
-174.000         -90.000            5.225e-02           4.186e-02             343.401           1.039e-02             221.838           2.548e+00     
-173.000         -90.000            4.433e-02           3.566e-02             345.677           8.670e-03             208.679           3.403e+00     
-172.000         -90.000            3.293e-02           2.515e-02             349.690           7.783e-03             192.829           5.818e+00     
-171.000         -90.000            2.164e-02           1.380e-02             357.765           7.833e-03             175.732           5.865e+01     
-170.000         -90.000            1.427e-02           5.453e-03              18.219           8.813e-03             159.372           2.941e+00     
-169.000         -90.000            1.370e-02           3.083e-03              71.201           1.061e-02             145.012           1.991e+00     
-168.000         -90.000            2.095e-02           7.898e-03             113.513           1.305e-02             132.827           6.074e+00     
-167.000         -90.000            3.484e-02           1.894e-02             128.714           1.591e-02             122.414           1.824e+01     
-166.000         -90.000            5.228e-02           3.335e-02             135.595           1.893e-02             113.276           5.290e+00     
-165.000         -90.000            6.912e-02           4.722e-02             139.697           2.190e-02             105.011           3.491e+00     
-164.000         -90.000            8.139e-02           5.677e-02             142.848           2.463e-02              97.332           2.678e+00     
-163.000         -90.000            8.635e-02           5.940e-02             145.898           2.694e-02              90.051           2.141e+00     
