Theta [deg.]  Phi   [deg.]  Abs(Dir.)[      ]   Abs(Theta)[      ]  Phase(Theta)[deg.]  Abs(Phi  )[      ]  Phase(Phi  )[deg.]  Ax.Ratio[      ]    
------------------------------------------------------------------------------------------------------------------------------------------------------
-180.000         -90.000            1.529e-02           1.009e-07             226.419           1.529e-02              26.747           3.162e+02     
-179.000         -90.000            1.927e-02           4.035e-03             165.060           1.524e-02              26.409           3.429e+00     
-178.000         -90.000            2.906e-02           1.399e-02             165.095           1.507e-02              25.400           2.727e+00     
-177.000         -90.000            3.938e-02           2.463e-02             165.394           1.476e-02              23.768           2.994e+00     
-176.000         -90.000            4.456e-02           3.033e-02             166.007           1.423e-02              21.577           3.393e+00     
-175.000         -90.000            4.149e-02           2.807e-02             167.183           1.342e-02              18.889           3.805e+00     
-174.000         -90.000            3.132e-02           1.904e-02             169.612           1.228e-02              15.742           4.425e+00     
-173.000         -90.000            1.885e-02           8.071e-03             175.907           1.078e-02              12.132           7.092e+00     
-172.000         -90.000            1.018e-02           1.218e-03             207.390           8.962e-03               7.978           9.161e+00     
-171.000         -90.000            9.561e-03           2.631e-03             309.555           6.930e-03               3.077           2.361e+00     
-170.000         -90.000            1.725e-02           1.240e-02             327.014           4.856e-03             356.975           4.215e+00     
-169.000         -90.000            2.937e-02           2.641e-02             332.224           2.962e-03             348.616           1.168e+01     
-168.000         -90.000            3.984e-02           3.836e-02             335.317           1.480e-03             335.135           3.162e+02     
-167.000         -90.000            4.344e-02           4.283e-02             338.287           6.026e-04             307.543           1.666e+01     
-166.000         -90.000            3.842e-02           3.798e-02             342.338           4.393e-04             254.658           9.306e+00     
-165.000         -90.000            2.741e-02           2.642e-02             349.336           9.832e-04             215.410           7.329e+00     
-164.000         -90.000            1.614e-02           1.404e-02               4.032           2.109e-03             196.797           1.335e+01     
-163.000         -90.000            1.074e-02           7.139e-03              38.288           3.598e-03             185.431           3.629e+00     
