Theta [deg.]  Phi   [deg.]  Abs(Dir.)[      ]   Abs(Theta)[      ]  Phase(Theta)[deg.]  Abs(Phi  )[      ]  Phase(Phi  )[deg.]  Ax.Ratio[      ]    
------------------------------------------------------------------------------------------------------------------------------------------------------
-180.000         -90.000            2.018e-02           1.019e-08             185.133           2.018e-02             338.228           3.162e+02     
-179.000         -90.000            2.381e-02           4.025e-03             156.874           1.978e-02             337.631           2.021e+02     
-178.000         -90.000            3.333e-02           1.467e-02             157.056           1.865e-02             335.797           9.166e+01     
-177.000         -90.000            4.515e-02           2.823e-02             157.428           1.692e-02             332.639           2.470e+01     
-176.000         -90.000            5.477e-02           3.998e-02             158.045           1.478e-02             327.997           1.283e+01     
-175.000         -90.000            5.834e-02           4.586e-02             159.028           1.248e-02             321.625           8.030e+00     
-174.000         -90.000            5.412e-02           4.388e-02             160.611           1.024e-02             313.172           5.354e+00     
-173.000         -90.000            4.313e-02           3.483e-02             163.302           8.300e-03             302.211           3.580e+00     
-172.000         -90.000            2.882e-02           2.198e-02             168.340           6.838e-03             288.399           2.277e+00     
-171.000         -90.000            1.598e-02           9.999e-03             179.805           5.985e-03             271.848           1.296e+00     
-170.000         -90.000            9.106e-03           3.291e-03             214.834           5.815e-03             253.614           2.989e+00     
-169.000         -90.000            1.084e-02           4.493e-03             277.763           6.346e-03             235.499           2.639e+00     
-168.000         -90.000            2.110e-02           1.355e-02             303.254           7.546e-03             219.022           1.364e+00     
-167.000         -90.000            3.709e-02           2.776e-02             312.710           9.339e-03             204.721           1.895e+00     
-166.000         -90.000            5.423e-02           4.262e-02             317.775           1.161e-02             192.415           2.606e+00     
-165.000         -90.000            6.767e-02           5.347e-02             321.485           1.420e-02             181.684           3.521e+00     
-164.000         -90.000            7.386e-02           5.693e-02             325.048           1.693e-02             172.137           5.025e+00     
-163.000         -90.000            7.175e-02           5.214e-02             329.358           1.962e-02             163.466           9.095e+00     
