Theta [deg.]  Phi   [deg.]  Abs(Dir.)[      ]   Abs(Theta)[      ]  Phase(Theta)[deg.]  Abs(Phi  )[      ]  Phase(Phi  )[deg.]  Ax.Ratio[      ]    
------------------------------------------------------------------------------------------------------------------------------------------------------
-180.000         -90.000            2.530e-02           8.587e-09              14.319           2.530e-02             342.744           3.162e+02     
-179.000         -90.000            2.870e-02           3.903e-03             282.661           2.479e-02             342.089           3.062e+00     
-178.000         -90.000            3.799e-02           1.464e-02             282.762           2.335e-02             340.086           1.920e+00     
-177.000         -90.000            5.072e-02           2.954e-02             282.952           2.118e-02             336.584           2.024e+00     
-176.000         -90.000            6.353e-02           4.492e-02             283.254           1.861e-02             331.324           2.563e+00     
-175.000         -90.000            7.300e-02           5.699e-02             283.711           1.602e-02             323.965           3.450e+00     
-174.000         -90.000            7.657e-02           6.276e-02             284.394           1.381e-02             314.183           5.036e+00     
-173.000         -90.000            7.320e-02           6.084e-02             285.427           1.236e-02             301.948           9.279e+00     
-172.000         -90.000            6.370e-02           5.175e-02             287.047           1.195e-02             287.918           1.685e+02     
-171.000         -90.000            5.056e-02           3.782e-02             289.759           1.274e-02             273.498           8.103e+00     
-170.000         -90.000            3.733e-02           2.257e-02             294.781           1.476e-02             260.163           3.297e+00     
-169.000         -90.000            2.780e-02           9.912e-03             306.130           1.789e-02             248.683           1.969e+00     
-168.000         -90.000            2.506e-02           3.170e-03             340.905           2.189e-02             239.087           2.704e+00     
-167.000         -90.000            3.071e-02           4.283e-03              44.506           2.643e-02             231.039           2.533e+01     
-166.000         -90.000            4.445e-02           1.334e-02              70.155           3.111e-02             224.145           4.766e+00     
-165.000         -90.000            6.409e-02           2.856e-02              79.501           3.553e-02             218.065           2.665e+00     
-164.000         -90.000            8.602e-02           4.672e-02              84.347           3.931e-02             212.538           2.071e+00     
-163.000         -90.000            1.061e-01           6.393e-02              87.615           4.214e-02             207.375           1.798e+00     
