Theta [deg.]  Phi   [deg.]  Abs(Dir.)[      ]   Abs(Theta)[      ]  Phase(Theta)[deg.]  Abs(Phi  )[      ]  Phase(Phi  )[deg.]  Ax.Ratio[      ]    
------------------------------------------------------------------------------------------------------------------------------------------------------
-180.000         -90.000            5.685e-03           4.639e-07              22.073           5.685e-03              16.222           3.162e+02     
-179.000         -90.000            8.092e-03           2.439e-03              98.890           5.654e-03              17.031           1.561e+00     
-178.000         -90.000            1.361e-02           8.039e-03              99.468           5.573e-03              19.326           1.287e+00     
-177.000         -90.000            1.840e-02           1.293e-02              99.974           5.473e-03              22.705           1.629e+00     
-176.000         -90.000            1.910e-02           1.373e-02             100.753           5.372e-03              26.531           1.735e+00     
-175.000         -90.000            1.516e-02           9.913e-03             102.268           5.246e-03              30.049           1.571e+00     
-174.000         -90.000            9.162e-03           4.132e-03             106.189           5.031e-03              32.539           1.358e+00     
-173.000         -90.000            5.032e-03           3.855e-04             130.604           4.646e-03              33.416           3.504e+00     
-172.000         -90.000            5.293e-03           1.244e-03             259.540           4.049e-03              32.183           2.856e+00     
-171.000         -90.000            9.364e-03           6.096e-03             270.487           3.267e-03              28.266           1.823e+00     
-170.000         -90.000            1.402e-02           1.160e-02             274.332           2.413e-03              20.745           2.333e+00     
-169.000         -90.000            1.569e-02           1.404e-02             277.730           1.647e-03               8.017           2.920e+00     
-168.000         -90.000            1.300e-02           1.188e-02             282.767           1.122e-03             347.974           3.648e+00     
-167.000         -90.000            7.738e-03           6.817e-03             293.123           9.211e-04             320.989           6.452e+00     
-166.000         -90.000            3.655e-03           2.634e-03             321.997           1.021e-03             293.778           4.491e+00     
-165.000         -90.000            3.888e-03           2.587e-03              22.101           1.301e-03             272.012           1.651e+00     
-164.000         -90.000            8.787e-03           7.198e-03              53.076           1.590e-03             255.009           6.808e+00     
-163.000         -90.000            1.561e-02           1.388e-02              64.769           1.734e-03             240.230           4.019e+01     
