Theta [deg.]  Phi   [deg.]  Abs(Dir.)[      ]   Abs(Theta)[      ]  Phase(Theta)[deg.]  Abs(Phi  )[      ]  Phase(Phi  )[deg.]  Ax.Ratio[      ]    
------------------------------------------------------------------------------------------------------------------------------------------------------
-180.000         -90.000            3.243e-03           1.641e-07             175.803           3.242e-03             167.593           3.162e+02     
-179.000         -90.000            5.431e-03           2.198e-03             104.510           3.233e-03             166.937           1.716e+00     
-178.000         -90.000            1.070e-02           7.490e-03             104.491           3.207e-03             164.979           2.011e+00     
-177.000         -90.000            1.596e-02           1.280e-02             104.858           3.164e-03             161.746           2.612e+00     
-176.000         -90.000            1.814e-02           1.503e-02             105.665           3.103e-03             157.277           3.061e+00     
-175.000         -90.000            1.594e-02           1.292e-02             107.293           3.025e-03             151.622           3.351e+00     
-174.000         -90.000            1.064e-02           7.708e-03             110.919           2.930e-03             144.847           3.743e+00     
-173.000         -90.000            5.320e-03           2.502e-03             121.966           2.818e-03             137.019           7.583e+00     
-172.000         -90.000            3.108e-03           4.194e-04             192.363           2.688e-03             128.208           2.908e+00     
-171.000         -90.000            5.357e-03           2.816e-03             256.195           2.541e-03             118.470           2.591e+00     
-170.000         -90.000            1.087e-02           8.499e-03             266.918           2.375e-03             107.836           6.628e+00     
-169.000         -90.000            1.659e-02           1.440e-02             271.405           2.194e-03              96.287           3.466e+01     
-168.000         -90.000            1.934e-02           1.734e-02             274.860           2.002e-03              83.763           1.700e+01     
-167.000         -90.000            1.760e-02           1.579e-02             279.134           1.810e-03              70.173           6.649e+00     
-166.000         -90.000            1.242e-02           1.078e-02             286.499           1.631e-03              55.445           3.523e+00     
-165.000         -90.000            6.791e-03           5.313e-03             302.959           1.478e-03              39.603           1.918e+00     
-164.000         -90.000            4.040e-03           2.679e-03             344.154           1.361e-03              22.825           3.059e+00     
-163.000         -90.000            5.958e-03           4.679e-03              30.939           1.280e-03               5.433           5.472e+00     
