Theta [deg.]  Phi   [deg.]  Abs(Dir.)[      ]   Abs(Theta)[      ]  Phase(Theta)[deg.]  Abs(Phi  )[      ]  Phase(Phi  )[deg.]  Ax.Ratio[      ]    
------------------------------------------------------------------------------------------------------------------------------------------------------
-180.000         -90.000            1.530e-02           2.179e-07             169.744           1.530e-02             270.508           2.697e+02     
-179.000         -90.000            1.947e-02           4.431e-03             234.103           1.504e-02             269.927           3.813e+00     
-178.000         -90.000            3.016e-02           1.588e-02             234.501           1.428e-02             268.120           3.316e+00     
-177.000         -90.000            4.285e-02           2.973e-02             234.966           1.312e-02             265.034           4.086e+00     
-176.000         -90.000            5.207e-02           4.039e-02             235.678           1.169e-02             260.579           5.511e+00     
-175.000         -90.000            5.370e-02           4.356e-02             236.828           1.013e-02             254.638           8.234e+00     
-174.000         -90.000            4.662e-02           3.801e-02             238.795           8.611e-03             247.080           1.783e+01     
-173.000         -90.000            3.329e-02           2.606e-02             242.488           7.237e-03             237.792           2.958e+01     
-172.000         -90.000            1.881e-02           1.272e-02             250.810           6.092e-03             226.744           5.042e+00     
-171.000         -90.000            8.947e-03           3.736e-03             277.544           5.211e-03             214.038           1.665e+00     
-170.000         -90.000            7.864e-03           3.274e-03             350.040           4.590e-03             199.961           3.804e+00     
-169.000         -90.000            1.648e-02           1.229e-02              21.608           4.196e-03             184.936           7.875e+00     
-168.000         -90.000            3.207e-02           2.809e-02              31.308           3.983e-03             169.402           4.307e+00     
-167.000         -90.000            4.924e-02           4.533e-02              35.992           3.907e-03             153.683           3.923e+00     
-166.000         -90.000            6.200e-02           5.807e-02              39.201           3.937e-03             137.954           3.892e+00     
-165.000         -90.000            6.599e-02           6.193e-02              42.211           4.061e-03             122.302           3.973e+00     
-164.000         -90.000            6.006e-02           5.578e-02              45.919           4.281e-03             106.813           4.211e+00     
-163.000         -90.000            4.674e-02           4.213e-02              51.537           4.611e-03              91.633           5.007e+00     
