Theta [deg.]  Phi   [deg.]  Abs(Dir.)[      ]   Abs(Theta)[      ]  Phase(Theta)[deg.]  Abs(Phi  )[      ]  Phase(Phi  )[deg.]  Ax.Ratio[      ]    
------------------------------------------------------------------------------------------------------------------------------------------------------
-180.000         -90.000            1.522e-02           6.304e-08             183.095           1.522e-02             301.018           3.162e+02     
-179.000         -90.000            1.825e-02           3.479e-03              30.561           1.477e-02             300.282           2.060e+00     
-178.000         -90.000            2.641e-02           1.293e-02              30.762           1.348e-02             298.013           1.054e+00     
-177.000         -90.000            3.710e-02           2.553e-02              31.212           1.157e-02             293.942           1.517e+00     
-176.000         -90.000            4.692e-02           3.754e-02              31.944           9.383e-03             287.555           2.106e+00     
-175.000         -90.000            5.270e-02           4.542e-02              33.067           7.279e-03             278.039           2.847e+00     
-174.000         -90.000            5.253e-02           4.691e-02              34.778           5.623e-03             264.397           3.996e+00     
-173.000         -90.000            4.640e-02           4.170e-02              37.461           4.700e-03             246.289           6.725e+00     
-172.000         -90.000            3.621e-02           3.153e-02              41.907           4.676e-03             225.677           4.534e+01     
-171.000         -90.000            2.526e-02           1.968e-02              50.021           5.579e-03             206.387           5.842e+00     
-170.000         -90.000            1.728e-02           9.971e-03              67.004           7.305e-03             190.659           1.908e+00     
-169.000         -90.000            1.529e-02           5.645e-03             103.475           9.640e-03             178.288           1.464e+00     
-168.000         -90.000            2.070e-02           8.390e-03             145.273           1.231e-02             168.245           5.020e+00     
-167.000         -90.000            3.285e-02           1.784e-02             166.836           1.501e-02             159.615           1.591e+01     
-166.000         -90.000            4.915e-02           3.166e-02             177.181           1.749e-02             151.764           4.651e+00     
-165.000         -90.000            6.579e-02           4.624e-02             183.201           1.955e-02             144.277           3.167e+00     
-164.000         -90.000            7.879e-02           5.773e-02             187.526           2.106e-02             136.876           2.526e+00     
-163.000         -90.000            8.512e-02           6.311e-02             191.333           2.200e-02             129.383           2.115e+00     
