Theta [deg.]  Phi   [deg.]  Abs(Dir.)[      ]   Abs(Theta)[      ]  Phase(Theta)[deg.]  Abs(Phi  )[      ]  Phase(Phi  )[deg.]  Ax.Ratio[      ]    
------------------------------------------------------------------------------------------------------------------------------------------------------
-180.000         -90.000            1.665e-02           2.131e-07             255.432           1.665e-02               5.896           2.983e+02     
-179.000         -90.000            2.092e-02           4.580e-03             301.169           1.634e-02               5.329           2.241e+00     
-178.000         -90.000            3.192e-02           1.646e-02             301.501           1.546e-02               3.562           1.664e+00     
-177.000         -90.000            4.513e-02           3.103e-02             301.907           1.410e-02               0.523           2.036e+00     
-176.000         -90.000            5.507e-02           4.264e-02             302.531           1.243e-02             356.096           2.587e+00     
-175.000         -90.000            5.742e-02           4.680e-02             303.538           1.062e-02             350.113           3.237e+00     
-174.000         -90.000            5.079e-02           4.193e-02             305.237           8.865e-03             342.368           4.122e+00     
-173.000         -90.000            3.730e-02           3.000e-02             308.350           7.303e-03             332.652           5.955e+00     
-172.000         -90.000            2.182e-02           1.578e-02             315.034           6.045e-03             320.849           2.201e+01     
-171.000         -90.000            1.021e-02           5.074e-03             334.739           5.139e-03             307.064           4.060e+00     
-170.000         -90.000            7.059e-03           2.475e-03              42.833           4.584e-03             291.755           1.634e+00     
-169.000         -90.000            1.396e-02           9.621e-03              85.609           4.334e-03             275.675           1.228e+01     
-168.000         -90.000            2.888e-02           2.456e-02              97.439           4.323e-03             259.583           9.030e+00     
-167.000         -90.000            4.689e-02           4.242e-02             102.649           4.476e-03             243.951           5.253e+00     
-166.000         -90.000            6.197e-02           5.724e-02             105.961           4.732e-03             228.900           4.251e+00     
-165.000         -90.000            6.913e-02           6.407e-02             108.851           5.052e-03             214.339           3.718e+00     
-164.000         -90.000            6.623e-02           6.081e-02             112.188           5.423e-03             200.131           3.351e+00     
-163.000         -90.000            5.474e-02           4.889e-02             116.971           5.853e-03             186.198           3.143e+00     
