Theta [deg.]  Phi   [deg.]  Abs(Dir.)[      ]   Abs(Theta)[      ]  Phase(Theta)[deg.]  Abs(Phi  )[      ]  Phase(Phi  )[deg.]  Ax.Ratio[      ]    
------------------------------------------------------------------------------------------------------------------------------------------------------
-180.000         -90.000            9.330e-03           1.582e-07             301.817           9.330e-03              35.119           2.433e+02     
-179.000         -90.000            1.292e-02           3.905e-03             321.607           9.018e-03              34.207           1.691e+00     
-178.000         -90.000            2.276e-02           1.461e-02             321.789           8.151e-03              31.339           1.602e+00     
-177.000         -90.000            3.649e-02           2.958e-02             321.982           6.912e-03              26.058           2.425e+00     
-176.000         -90.000            5.088e-02           4.531e-02             322.254           5.571e-03              17.526           3.620e+00     
-175.000         -90.000            6.254e-02           5.809e-02             322.650           4.449e-03               4.610           5.641e+00     
-174.000         -90.000            6.880e-02           6.494e-02             323.235           3.861e-03             346.812           1.077e+01     
-173.000         -90.000            6.833e-02           6.425e-02             324.115           4.076e-03             326.334           1.090e+02     
-172.000         -90.000            6.151e-02           5.624e-02             325.480           5.267e-03             307.638           1.158e+01     
-171.000         -90.000            5.034e-02           4.285e-02             327.720           7.490e-03             293.156           4.742e+00     
-170.000         -90.000            3.796e-02           2.729e-02             331.730           1.067e-02             282.474           2.543e+00     
-169.000         -90.000            2.795e-02           1.335e-02             340.179           1.460e-02             274.392           1.550e+00     
-168.000         -90.000            2.347e-02           4.475e-03               3.842           1.900e-02             267.937           2.078e+00     
-167.000         -90.000            2.649e-02           3.007e-03              66.339           2.349e-02             262.470           1.126e+01     
-166.000         -90.000            3.733e-02           9.627e-03             103.642           2.770e-02             257.584           5.004e+00     
-165.000         -90.000            5.450e-02           2.321e-02             115.855           3.129e-02             253.011           2.588e+00     
-164.000         -90.000            7.503e-02           4.107e-02             121.493           3.396e-02             248.568           2.024e+00     
-163.000         -90.000            9.512e-02           5.958e-02             124.921           3.554e-02             244.118           1.818e+00     
