Theta [deg.]  Phi   [deg.]  Abs(Dir.)[      ]   Abs(Theta)[      ]  Phase(Theta)[deg.]  Abs(Phi  )[      ]  Phase(Phi  )[deg.]  Ax.Ratio[      ]    
------------------------------------------------------------------------------------------------------------------------------------------------------
-180.000         -90.000            1.308e-02           1.070e-07              22.371           1.308e-02             123.680           3.162e+02     
-179.000         -90.000            1.549e-02           2.839e-03             146.260           1.265e-02             122.879           6.355e+00     
-178.000         -90.000            2.202e-02           1.059e-02             146.570           1.143e-02             120.392           4.305e+00     
-177.000         -90.000            3.072e-02           2.105e-02             146.919           9.670e-03             115.855           3.918e+00     
-176.000         -90.000            3.896e-02           3.126e-02             147.425           7.694e-03             108.562           3.736e+00     
-175.000         -90.000            4.423e-02           3.833e-02             148.182           5.893e-03              97.407           3.514e+00     
-174.000         -90.000            4.491e-02           4.027e-02             149.335           4.645e-03              81.253           3.230e+00     
-173.000         -90.000            4.079e-02           3.655e-02             151.154           4.248e-03              60.666           2.933e+00     
-172.000         -90.000            3.318e-02           2.830e-02             154.194           4.877e-03              39.592           2.741e+00     
-171.000         -90.000            2.454e-02           1.798e-02             159.786           6.557e-03              22.126           3.025e+00     
-170.000         -90.000            1.789e-02           8.726e-03             171.952           9.162e-03               8.980           6.682e+00     
-169.000         -90.000            1.593e-02           3.488e-03             204.443           1.244e-02             359.008           5.447e+00     
-168.000         -90.000            2.028e-02           4.214e-03             259.121           1.606e-02             351.013           1.954e+00     
-167.000         -90.000            3.096e-02           1.130e-02             286.064           1.966e-02             344.167           1.928e+00     
-166.000         -90.000            4.634e-02           2.345e-02             296.662           2.289e-02             337.937           2.655e+00     
-165.000         -90.000            6.349e-02           3.801e-02             302.058           2.547e-02             331.978           3.829e+00     
-164.000         -90.000            7.887e-02           5.163e-02             305.495           2.725e-02             326.054           5.816e+00     
-163.000         -90.000            8.925e-02           6.111e-02             308.228           2.814e-02             319.998           1.046e+01     
