Theta [deg.]  Phi   [deg.]  Abs(Dir.)[      ]   Abs(Theta)[      ]  Phase(Theta)[deg.]  Abs(Phi  )[      ]  Phase(Phi  )[deg.]  Ax.Ratio[      ]    
------------------------------------------------------------------------------------------------------------------------------------------------------
-180.000         -90.000            1.622e-02           6.546e-08              79.400           1.622e-02             208.831           3.162e+02     
-179.000         -90.000            1.975e-02           3.976e-03             329.010           1.577e-02             208.132           2.507e+00     
-178.000         -90.000            2.920e-02           1.471e-02             329.157           1.449e-02             205.975           1.849e+00     
-177.000         -90.000            4.152e-02           2.895e-02             329.589           1.257e-02             202.141           2.308e+00     
-176.000         -90.000            5.271e-02           4.238e-02             330.314           1.033e-02             196.213           3.195e+00     
-175.000         -90.000            5.910e-02           5.097e-02             331.436           8.129e-03             187.535           4.716e+00     
-174.000         -90.000            5.853e-02           5.223e-02             333.156           6.295e-03             175.261           8.459e+00     
-173.000         -90.000            5.104e-02           4.594e-02             335.863           5.106e-03             158.858           6.379e+01     
-172.000         -90.000            3.895e-02           3.422e-02             340.380           4.729e-03             139.326           8.404e+00     
-171.000         -90.000            2.608e-02           2.088e-02             348.719           5.201e-03             119.688           2.979e+00     
-170.000         -90.000            1.669e-02           1.025e-02               6.516           6.441e-03             102.654           1.292e+00     
-169.000         -90.000            1.412e-02           5.846e-03              45.096           8.272e-03              88.807           2.545e+00     
-168.000         -90.000            1.977e-02           9.317e-03              86.887           1.046e-02              77.443           1.213e+01     
-167.000         -90.000            3.267e-02           1.994e-02             107.447           1.274e-02              67.686           2.856e+00     
-166.000         -90.000            4.973e-02           3.484e-02             117.354           1.489e-02              58.862           2.080e+00     
-165.000         -90.000            6.663e-02           4.989e-02             123.265           1.674e-02              50.513           1.883e+00     
-164.000         -90.000            7.910e-02           6.091e-02             127.683           1.818e-02              42.334           1.841e+00     
-163.000         -90.000            8.412e-02           6.494e-02             131.763           1.918e-02              34.134           1.870e+00     
