Theta [deg.]  Phi   [deg.]  Abs(Dir.)[      ]   Abs(Theta)[      ]  Phase(Theta)[deg.]  Abs(Phi  )[      ]  Phase(Phi  )[deg.]  Ax.Ratio[      ]    
------------------------------------------------------------------------------------------------------------------------------------------------------
-180.000         -90.000            1.779e-02           1.116e-07             245.525           1.779e-02              22.866           3.162e+02     
-179.000         -90.000            2.200e-02           4.625e-03             201.690           1.737e-02              22.241           2.554e+02     
-178.000         -90.000            3.310e-02           1.694e-02             201.797           1.616e-02              20.304           7.674e+01     
-177.000         -90.000            4.728e-02           3.296e-02             202.142           1.431e-02              16.911           2.383e+01     
-176.000         -90.000            5.963e-02           4.753e-02             202.737           1.210e-02              11.799           1.303e+01     
-175.000         -90.000            6.580e-02           5.600e-02             203.681           9.809e-03               4.556           8.452e+00     
-174.000         -90.000            6.345e-02           5.571e-02             205.172           7.736e-03             354.622           5.841e+00     
-173.000         -90.000            5.304e-02           4.692e-02             207.610           6.125e-03             341.432           4.093e+00     
-172.000         -90.000            3.775e-02           3.261e-02             211.893           5.137e-03             324.935           2.814e+00     
-171.000         -90.000            2.245e-02           1.761e-02             220.540           4.838e-03             306.310           1.917e+00     
-170.000         -90.000            1.214e-02           6.946e-03             242.320           5.197e-03             287.833           2.420e+00     
-169.000         -90.000            1.037e-02           4.270e-03             295.417           6.104e-03             271.307           4.764e+00     
-168.000         -90.000            1.807e-02           1.068e-02             335.544           7.394e-03             257.149           1.317e+00     
-167.000         -90.000            3.327e-02           2.438e-02             350.502           8.884e-03             244.913           1.787e+00     
-166.000         -90.000            5.171e-02           4.131e-02             357.600           1.040e-02             233.970           2.614e+00     
-165.000         -90.000            6.821e-02           5.642e-02               2.128           1.180e-02             223.789           3.708e+00     
-164.000         -90.000            7.826e-02           6.527e-02               5.878           1.299e-02             213.994           5.523e+00     
-163.000         -90.000            7.937e-02           6.545e-02               9.809           1.392e-02             204.331           1.039e+01     
