Theta [deg.]  Phi   [deg.]  Abs(Dir.)[      ]   Abs(Theta)[      ]  Phase(Theta)[deg.]  Abs(Phi  )[      ]  Phase(Phi  )[deg.]  Ax.Ratio[      ]    
------------------------------------------------------------------------------------------------------------------------------------------------------
-180.000         -90.000            6.900e-03           4.820e-08             198.121           6.900e-03             329.145           3.162e+02     
-179.000         -90.000            1.044e-02           3.706e-03              67.031           6.735e-03             328.316           1.400e+00     
-178.000         -90.000            2.008e-02           1.381e-02              67.229           6.265e-03             325.722           1.563e+00     
-177.000         -90.000            3.306e-02           2.749e-02              67.702           5.576e-03             321.165           2.363e+00     
-176.000         -90.000            4.571e-02           4.091e-02              68.472           4.793e-03             314.324           3.271e+00     
-175.000         -90.000            5.444e-02           5.038e-02              69.642           4.058e-03             304.832           4.410e+00     
-174.000         -90.000            5.686e-02           5.337e-02              71.400           3.498e-03             292.503           6.168e+00     
-173.000         -90.000            5.242e-02           4.921e-02              74.088           3.205e-03             277.753           1.030e+01     
-172.000         -90.000            4.257e-02           3.935e-02              78.378           3.220e-03             261.847           6.248e+01     
-171.000         -90.000            3.037e-02           2.684e-02              85.737           3.531e-03             246.387           9.308e+00     
-170.000         -90.000            1.963e-02           1.555e-02              99.625           4.079e-03             232.363           3.025e+00     
-169.000         -90.000            1.378e-02           9.001e-03             126.887           4.779e-03             219.906           1.379e+00     
-168.000         -90.000            1.494e-02           9.402e-03             164.799           5.536e-03             208.654           2.605e+00     
-167.000         -90.000            2.328e-02           1.701e-02             191.117           6.270e-03             198.128           1.842e+01     
-166.000         -90.000            3.700e-02           3.007e-02             204.800           6.934e-03             187.908           8.704e+00     
-165.000         -90.000            5.279e-02           4.528e-02             212.578           7.516e-03             177.694           4.795e+00     
-164.000         -90.000            6.677e-02           5.873e-02             217.819           8.039e-03             167.312           3.713e+00     
-163.000         -90.000            7.553e-02           6.698e-02             222.044           8.552e-03             156.717           3.156e+00     
