Theta [deg.]  Phi   [deg.]  Abs(Dir.)[      ]   Abs(Theta)[      ]  Phase(Theta)[deg.]  Abs(Phi  )[      ]  Phase(Phi  )[deg.]  Ax.Ratio[      ]    
------------------------------------------------------------------------------------------------------------------------------------------------------
-180.000         -90.000            5.407e-03           4.836e-08             354.950           5.407e-03             157.887           3.162e+02     
-179.000         -90.000            8.590e-03           3.350e-03             186.559           5.240e-03             156.973           3.896e+00     
-178.000         -90.000            1.730e-02           1.253e-02             186.727           4.764e-03             154.096           3.895e+00     
-177.000         -90.000            2.912e-02           2.504e-02             187.065           4.077e-03             148.885           4.437e+00     
-176.000         -90.000            4.080e-02           3.748e-02             187.609           3.324e-03             140.673           4.795e+00     
-175.000         -90.000            4.912e-02           4.645e-02             188.441           2.670e-03             128.586           4.896e+00     
-174.000         -90.000            5.181e-02           4.954e-02             189.702           2.266e-03             112.164           4.800e+00     
-173.000         -90.000            4.820e-02           4.597e-02             191.659           2.226e-03              92.768           4.605e+00     
-172.000         -90.000            3.942e-02           3.681e-02             194.839           2.607e-03              73.763           4.475e+00     
-171.000         -90.000            2.813e-02           2.473e-02             200.449           3.401e-03              57.747           4.856e+00     
-170.000         -90.000            1.785e-02           1.331e-02             211.750           4.540e-03              44.979           9.933e+00     
-169.000         -90.000            1.197e-02           6.057e-03             238.342           5.914e-03              34.597           4.757e+00     
-168.000         -90.000            1.290e-02           5.507e-03             286.216           7.390e-03              25.691           1.249e+00     
-167.000         -90.000            2.134e-02           1.250e-02             317.685           8.839e-03              17.588           1.787e+00     
-166.000         -90.000            3.612e-02           2.596e-02             331.160           1.016e-02               9.831           3.252e+00     
-165.000         -90.000            5.437e-02           4.309e-02             337.968           1.128e-02               2.121           5.856e+00     
-164.000         -90.000            7.229e-02           6.010e-02             342.178           1.219e-02             354.267           1.267e+01     
-163.000         -90.000            8.604e-02           7.313e-02             345.354           1.291e-02             346.161           1.988e+02     
