Theta [deg.]  Phi   [deg.]  Abs(Dir.)[      ]   Abs(Theta)[      ]  Phase(Theta)[deg.]  Abs(Phi  )[      ]  Phase(Phi  )[deg.]  Ax.Ratio[      ]    
------------------------------------------------------------------------------------------------------------------------------------------------------
-180.000         -90.000            1.727e-03           1.319e-08             355.089           1.727e-03             157.144           3.162e+02     
-179.000         -90.000            5.263e-03           3.606e-03              69.205           1.657e-03             155.780           1.482e+00     
-178.000         -90.000            1.511e-02           1.365e-02              69.348           1.465e-03             151.472           3.089e+00     
-177.000         -90.000            2.920e-02           2.799e-02              69.497           1.207e-03             143.323           5.032e+00     
-176.000         -90.000            4.456e-02           4.359e-02              69.707           9.710e-04             129.842           7.770e+00     
-175.000         -90.000            5.799e-02           5.713e-02              70.015           8.611e-04             110.137           1.275e+01     
-174.000         -90.000            6.674e-02           6.576e-02              70.469           9.833e-04              87.260           2.870e+01     
-173.000         -90.000            6.912e-02           6.769e-02              71.150           1.431e-03              67.348           1.059e+02     
-172.000         -90.000            6.481e-02           6.254e-02              72.190           2.271e-03              52.835           1.635e+01     
-171.000         -90.000            5.503e-02           5.149e-02              73.833           3.535e-03              42.538           7.722e+00     
-170.000         -90.000            4.214e-02           3.693e-02              76.589           5.209e-03              34.860           4.334e+00     
-169.000         -90.000            2.926e-02           2.203e-02              81.705           7.238e-03              28.728           2.503e+00     
-168.000         -90.000            1.953e-02           1.000e-02              93.009           9.530e-03              23.500           1.442e+00     
-167.000         -90.000            1.548e-02           3.517e-03             125.100           1.196e-02              18.794           1.982e+00     
-166.000         -90.000            1.845e-02           4.069e-03             184.133           1.438e-02              14.373           1.349e+01     
-165.000         -90.000            2.838e-02           1.173e-02             211.656           1.665e-02              10.082           5.336e+00     
-164.000         -90.000            4.374e-02           2.511e-02             221.841           1.863e-02               5.815           3.118e+00     
-163.000         -90.000            6.188e-02           4.169e-02             226.875           2.019e-02               1.491           2.614e+00     
