Theta [deg.]  Phi   [deg.]  Abs(Dir.)[      ]   Abs(Theta)[      ]  Phase(Theta)[deg.]  Abs(Phi  )[      ]  Phase(Phi  )[deg.]  Ax.Ratio[      ]    
------------------------------------------------------------------------------------------------------------------------------------------------------
-180.000         -90.000            7.733e-03           4.214e-08              50.737           7.733e-03             137.313           3.162e+02     
-179.000         -90.000            1.198e-02           4.383e-03             299.497           7.595e-03             136.590           6.919e+00     
-178.000         -90.000            2.347e-02           1.627e-02             299.642           7.205e-03             134.345           8.423e+00     
-177.000         -90.000            3.879e-02           3.217e-02             300.027           6.621e-03             130.495           1.456e+01     
-176.000         -90.000            5.340e-02           4.747e-02             300.669           5.932e-03             124.916           4.295e+01     
-175.000         -90.000            6.300e-02           5.776e-02             301.659           5.234e-03             117.487           4.979e+01     
-174.000         -90.000            6.481e-02           6.019e-02             303.168           4.617e-03             108.162           1.495e+01     
-173.000         -90.000            5.838e-02           5.424e-02             305.520           4.145e-03              97.077           8.051e+00     
-172.000         -90.000            4.574e-02           4.189e-02             309.363           3.852e-03              84.634           4.913e+00     
-171.000         -90.000            3.071e-02           2.698e-02             316.213           3.733e-03              71.456           3.056e+00     
-170.000         -90.000            1.781e-02           1.406e-02             330.085           3.759e-03              58.155           1.936e+00     
-169.000         -90.000            1.087e-02           6.995e-03               0.904           3.879e-03              45.119           2.610e+00     
-168.000         -90.000            1.193e-02           7.890e-03              45.322           4.043e-03              32.435           9.366e+00     
-167.000         -90.000            2.068e-02           1.647e-02              71.635           4.211e-03              19.970           2.810e+00     
-166.000         -90.000            3.457e-02           3.020e-02              83.889           4.365e-03               7.495           2.731e+00     
-165.000         -90.000            4.963e-02           4.512e-02              90.697           4.515e-03             354.799           3.182e+00     
-164.000         -90.000            6.167e-02           5.698e-02              95.411           4.693e-03             341.776           3.858e+00     
-163.000         -90.000            6.747e-02           6.253e-02              99.460           4.944e-03             328.482           4.878e+00     
