Theta [deg.]  Phi   [deg.]  Abs(Dir.)[      ]   Abs(Theta)[      ]  Phase(Theta)[deg.]  Abs(Phi  )[      ]  Phase(Phi  )[deg.]  Ax.Ratio[      ]    
------------------------------------------------------------------------------------------------------------------------------------------------------
-180.000         -90.000            2.112e-04           2.912e-08              41.230           2.111e-04              18.067           2.165e+02     
-179.000         -90.000            3.347e-03           3.111e-03             299.000           2.362e-04              18.745           3.697e+00     
-178.000         -90.000            1.222e-02           1.190e-02             299.081           3.179e-04              20.335           6.194e+00     
-177.000         -90.000            2.531e-02           2.483e-02             299.305           4.784e-04              22.056           7.265e+00     
-176.000         -90.000            4.039e-02           3.964e-02             299.662           7.511e-04              23.404           7.310e+00     
-175.000         -90.000            5.491e-02           5.374e-02             300.178           1.176e-03              24.231           6.799e+00     
-174.000         -90.000            6.650e-02           6.471e-02             300.897           1.793e-03              24.567           6.047e+00     
-173.000         -90.000            7.333e-02           7.069e-02             301.888           2.637e-03              24.490           5.225e+00     
-172.000         -90.000            7.445e-02           7.072e-02             303.261           3.730e-03              24.072           4.417e+00     
-171.000         -90.000            7.000e-02           6.492e-02             305.200           5.077e-03              23.371           3.666e+00     
-170.000         -90.000            6.110e-02           5.444e-02             308.019           6.662e-03              22.428           2.997e+00     
-169.000         -90.000            4.967e-02           4.123e-02             312.309           8.442e-03              21.269           2.443e+00     
-168.000         -90.000            3.811e-02           2.775e-02             319.277           1.036e-02              19.911           2.104e+00     
-167.000         -90.000            2.881e-02           1.649e-02             331.576           1.232e-02              18.366           2.347e+00     
-166.000         -90.000            2.379e-02           9.560e-03             354.407           1.423e-02              16.635           5.199e+00     
-165.000         -90.000            2.431e-02           8.313e-03              28.797           1.599e-02              14.716           8.547e+00     
-164.000         -90.000            3.064e-02           1.315e-02              57.723           1.750e-02              12.600           2.442e+00     
-163.000         -90.000            4.209e-02           2.343e-02              74.175           1.866e-02              10.271           1.627e+00     
