Theta [deg.]  Phi   [deg.]  Abs(Dir.)[      ]   Abs(Theta)[      ]  Phase(Theta)[deg.]  Abs(Phi  )[      ]  Phase(Phi  )[deg.]  Ax.Ratio[      ]    
------------------------------------------------------------------------------------------------------------------------------------------------------
-180.000         -90.000            6.228e-03           4.962e-08             275.167           6.228e-03              64.067           3.162e+02     
-179.000         -90.000            9.495e-03           3.438e-03             127.442           6.057e-03              63.194           1.733e+00     
-178.000         -90.000            1.841e-02           1.284e-02             127.636           5.569e-03              60.453           1.809e+00     
-177.000         -90.000            3.044e-02           2.558e-02             128.074           4.861e-03              55.563           2.455e+00     
-176.000         -90.000            4.222e-02           3.814e-02             128.784           4.071e-03              48.048           3.111e+00     
-175.000         -90.000            5.042e-02           4.706e-02             129.865           3.357e-03              37.320           3.749e+00     
-174.000         -90.000            5.279e-02           4.993e-02             131.494           2.861e-03              23.062           4.430e+00     
-173.000         -90.000            4.878e-02           4.609e-02             134.001           2.690e-03               6.026           5.371e+00     
-172.000         -90.000            3.968e-02           3.679e-02             138.034           2.890e-03             348.362           7.487e+00     
-171.000         -90.000            2.833e-02           2.488e-02             145.045           3.450e-03             332.296           2.419e+01     
-170.000         -90.000            1.834e-02           1.404e-02             158.632           4.302e-03             318.660           6.762e+00     
-169.000         -90.000            1.305e-02           7.709e-03             186.728           5.344e-03             307.130           1.803e+00     
-168.000         -90.000            1.464e-02           8.181e-03             227.259           6.459e-03             297.024           1.463e+00     
-167.000         -90.000            2.348e-02           1.593e-02             254.173           7.543e-03             287.724           3.597e+00     
-166.000         -90.000            3.799e-02           2.948e-02             267.434           8.519e-03             278.767           1.212e+01     
-165.000         -90.000            5.508e-02           4.573e-02             274.750           9.356e-03             269.838           3.107e+01     
-164.000         -90.000            7.088e-02           6.082e-02             279.535           1.006e-02             260.746           8.783e+00     
-163.000         -90.000            8.178e-02           7.111e-02             283.301           1.067e-02             251.409           5.435e+00     
