Theta [deg.]  Phi   [deg.]  Abs(Dir.)[      ]   Abs(Theta)[      ]  Phase(Theta)[deg.]  Abs(Phi  )[      ]  Phase(Phi  )[deg.]  Ax.Ratio[      ]    
------------------------------------------------------------------------------------------------------------------------------------------------------
-180.000         -90.000            4.481e-03           4.425e-08              77.706           4.481e-03             250.318           3.162e+02     
-179.000         -90.000            7.765e-03           3.437e-03             245.824           4.328e-03             249.356           3.265e+01     
-178.000         -90.000            1.679e-02           1.289e-02             245.964           3.895e-03             246.325           3.162e+02     
-177.000         -90.000            2.918e-02           2.590e-02             246.188           3.275e-03             240.753           3.341e+01     
-176.000         -90.000            4.167e-02           3.906e-02             246.542           2.608e-03             231.759           1.612e+01     
-175.000         -90.000            5.099e-02           4.894e-02             247.083           2.055e-03             218.155           1.042e+01     
-174.000         -90.000            5.471e-02           5.294e-02             247.911           1.766e-03             199.441           7.423e+00     
-173.000         -90.000            5.190e-02           5.004e-02             249.203           1.859e-03             178.013           5.503e+00     
-172.000         -90.000            4.345e-02           4.105e-02             251.305           2.399e-03             158.508           4.142e+00     
-171.000         -90.000            3.176e-02           2.838e-02             254.992           3.386e-03             143.248           3.173e+00     
-170.000         -90.000            2.028e-02           1.552e-02             262.390           4.762e-03             131.658           2.749e+00     
-169.000         -90.000            1.253e-02           6.107e-03             281.031           6.419e-03             122.467           5.285e+00     
-168.000         -90.000            1.125e-02           3.031e-03             332.597           8.219e-03             114.682           3.372e+00     
-167.000         -90.000            1.769e-02           7.671e-03              18.313           1.002e-02             107.653           1.143e+00     
-166.000         -90.000            3.123e-02           1.954e-02              34.300           1.169e-02             100.965           1.641e+00     
-165.000         -90.000            4.951e-02           3.638e-02              41.176           1.313e-02              94.348           2.416e+00     
-164.000         -90.000            6.895e-02           5.466e-02              45.031           1.429e-02              87.627           3.346e+00     
-163.000         -90.000            8.561e-02           7.046e-02              47.737           1.515e-02              80.686           4.600e+00     
