Theta [deg.]  Phi   [deg.]  Abs(Dir.)[      ]   Abs(Theta)[      ]  Phase(Theta)[deg.]  Abs(Phi  )[      ]  Phase(Phi  )[deg.]  Ax.Ratio[      ]    
------------------------------------------------------------------------------------------------------------------------------------------------------
-180.000         -90.000            7.407e-03           4.525e-08             123.499           7.407e-03             233.449           3.162e+02     
-179.000         -90.000            1.132e-02           4.063e-03               4.412           7.254e-03             232.671           2.372e+00     
-178.000         -90.000            2.194e-02           1.512e-02               4.590           6.820e-03             230.247           2.643e+00     
-177.000         -90.000            3.620e-02           3.002e-02               5.034           6.177e-03             226.042           3.787e+00     
-176.000         -90.000            4.998e-02           4.455e-02               5.763           5.433e-03             219.857           5.551e+00     
-175.000         -90.000            5.935e-02           5.464e-02               6.874           4.707e-03             211.472           8.777e+00     
-174.000         -90.000            6.169e-02           5.758e-02               8.549           4.107e-03             200.792           1.886e+01     
-173.000         -90.000            5.645e-02           5.274e-02              11.121           3.712e-03             188.050           7.529e+01     
-172.000         -90.000            4.532e-02           4.177e-02              15.241           3.556e-03             173.958           1.015e+01     
-171.000         -90.000            3.169e-02           2.806e-02              22.362           3.633e-03             159.545           4.391e+00     
-170.000         -90.000            1.970e-02           1.580e-02              36.004           3.897e-03             145.663           2.214e+00     
-169.000         -90.000            1.298e-02           8.701e-03              63.671           4.281e-03             132.676           1.685e+00     
-168.000         -90.000            1.366e-02           8.947e-03             103.296           4.714e-03             120.510           6.964e+00     
-167.000         -90.000            2.174e-02           1.660e-02             130.266           5.141e-03             108.872           6.293e+00     
-166.000         -90.000            3.512e-02           2.959e-02             143.905           5.530e-03              97.436           3.501e+00     
-165.000         -90.000            5.024e-02           4.435e-02             151.601           5.884e-03              85.941           3.089e+00     
-164.000         -90.000            6.308e-02           5.685e-02             156.838           6.234e-03              74.247           3.051e+00     
-163.000         -90.000            7.035e-02           6.372e-02             161.167           6.627e-03              62.357           3.146e+00     
