Theta [deg.]  Phi   [deg.]  Abs(Dir.)[      ]   Abs(Theta)[      ]  Phase(Theta)[deg.]  Abs(Phi  )[      ]  Phase(Phi  )[deg.]  Ax.Ratio[      ]    
------------------------------------------------------------------------------------------------------------------------------------------------------
-180.000         -90.000            7.840e-03           3.967e-08             339.014           7.840e-03              41.012           3.162e+02     
-179.000         -90.000            1.227e-02           4.555e-03             232.650           7.718e-03              40.340           9.604e+00     
-178.000         -90.000            2.422e-02           1.684e-02             232.763           7.372e-03              38.266           8.564e+00     
-177.000         -90.000            3.998e-02           3.313e-02             233.092           6.851e-03              34.738           8.307e+00     
-176.000         -90.000            5.470e-02           4.848e-02             233.650           6.224e-03              29.683           7.621e+00     
-175.000         -90.000            6.386e-02           5.830e-02             234.525           5.569e-03              23.036           6.635e+00     
-174.000         -90.000            6.468e-02           5.972e-02             235.888           4.957e-03              14.779           5.537e+00     
-173.000         -90.000            5.694e-02           5.250e-02             238.062           4.443e-03               5.002           4.440e+00     
-172.000         -90.000            4.306e-02           3.901e-02             241.734           4.055e-03             353.952           3.405e+00     
-171.000         -90.000            2.732e-02           2.353e-02             248.618           3.795e-03             341.997           2.496e+00     
-170.000         -90.000            1.453e-02           1.089e-02             263.861           3.641e-03             329.544           2.042e+00     
-169.000         -90.000            8.526e-03           4.966e-03             302.009           3.560e-03             316.895           7.764e+00     
-168.000         -90.000            1.107e-02           7.559e-03             350.646           3.514e-03             304.166           2.574e+00     
-167.000         -90.000            2.134e-02           1.786e-02              12.975           3.476e-03             291.291           2.302e+00     
-166.000         -90.000            3.619e-02           3.275e-02              22.709           3.437e-03             278.084           3.214e+00     
-165.000         -90.000            5.123e-02           4.782e-02              28.196           3.410e-03             264.344           4.614e+00     
-164.000         -90.000            6.210e-02           5.867e-02              32.146           3.427e-03             249.967           6.999e+00     
-163.000         -90.000            6.583e-02           6.230e-02              35.749           3.537e-03             235.059           1.334e+01     
