Theta [deg.]  Phi   [deg.]  Abs(Dir.)[      ]   Abs(Theta)[      ]  Phase(Theta)[deg.]  Abs(Phi  )[      ]  Phase(Phi  )[deg.]  Ax.Ratio[      ]    
------------------------------------------------------------------------------------------------------------------------------------------------------
-180.000         -90.000            1.214e-03           6.129e-08              32.499           1.214e-03              81.352           1.869e+02     
-179.000         -90.000            3.990e-03           2.784e-03               9.733           1.206e-03              80.852           1.720e+00     
-178.000         -90.000            1.134e-02           1.016e-02               9.868           1.183e-03              79.377           3.178e+00     
-177.000         -90.000            2.080e-02           1.966e-02              10.199           1.147e-03              76.943           4.549e+00     
-176.000         -90.000            2.922e-02           2.812e-02              10.764           1.101e-03              73.585           5.730e+00     
-175.000         -90.000            3.380e-02           3.276e-02              11.676           1.049e-03              69.358           6.675e+00     
-174.000         -90.000            3.308e-02           3.208e-02              13.153           9.943e-04              64.352           7.379e+00     
-173.000         -90.000            2.736e-02           2.642e-02              15.639           9.392e-04              58.684           7.920e+00     
-172.000         -90.000            1.864e-02           1.776e-02              20.188           8.839e-04              52.502           8.687e+00     
-171.000         -90.000            9.926e-03           9.099e-03              29.839           8.270e-04              45.953           1.296e+01     
-170.000         -90.000            4.202e-03           3.436e-03              55.591           7.656e-04              39.162           9.050e+00     
-169.000         -90.000            3.452e-03           2.756e-03             111.951           6.959e-04              32.204           2.044e+00     
-168.000         -90.000            8.010e-03           7.395e-03             145.831           6.150e-04              25.069           4.129e+00     
-167.000         -90.000            1.646e-02           1.594e-02             158.220           5.217e-04              17.628           8.880e+00     
-166.000         -90.000            2.614e-02           2.572e-02             164.102           4.183e-04               9.561           1.849e+01     
-165.000         -90.000            3.399e-02           3.368e-02             167.744           3.107e-04               0.209           4.866e+01     
-164.000         -90.000            3.757e-02           3.736e-02             170.642           2.094e-04             348.186           3.134e+02     
-163.000         -90.000            3.583e-02           3.570e-02             173.633           1.280e-04             330.494           4.263e+01     
