Theta [deg.]  Phi   [deg.]  Abs(Dir.)[      ]   Abs(Theta)[      ]  Phase(Theta)[deg.]  Abs(Phi  )[      ]  Phase(Phi  )[deg.]  Ax.Ratio[      ]    
------------------------------------------------------------------------------------------------------------------------------------------------------
-180.000         -90.000            1.650e-03           5.061e-08              92.656           1.650e-03              21.173           1.904e+02     
-179.000         -90.000            5.523e-03           3.871e-03              32.701           1.652e-03              19.825           9.697e+00     
-178.000         -90.000            1.626e-02           1.459e-02              32.681           1.667e-03              15.820           1.128e+01     
-177.000         -90.000            3.148e-02           2.976e-02              32.758           1.720e-03               9.401           1.101e+01     
-176.000         -90.000            4.782e-02           4.597e-02              32.915           1.848e-03               1.101           9.739e+00     
-175.000         -90.000            6.169e-02           5.960e-02              33.175           2.092e-03             351.751           8.229e+00     
-174.000         -90.000            7.008e-02           6.759e-02              33.588           2.490e-03             342.266           6.772e+00     
-173.000         -90.000            7.123e-02           6.817e-02              34.239           3.068e-03             333.337           5.454e+00     
-172.000         -90.000            6.505e-02           6.121e-02              35.280           3.835e-03             325.281           4.285e+00     
-171.000         -90.000            5.311e-02           4.833e-02              37.006           4.780e-03             318.114           3.254e+00     
-170.000         -90.000            3.833e-02           3.246e-02              40.092           5.869e-03             311.689           2.353e+00     
-169.000         -90.000            2.433e-02           1.727e-02              46.377           7.053e-03             305.816           1.627e+00     
-168.000         -90.000            1.464e-02           6.373e-03              62.759           8.271e-03             300.309           1.850e+00     
-167.000         -90.000            1.195e-02           2.489e-03             115.822           9.456e-03             295.009           1.736e+02     
-166.000         -90.000            1.745e-02           6.903e-03             167.271           1.055e-02             289.786           1.899e+00     
-165.000         -90.000            3.064e-02           1.915e-02             183.151           1.149e-02             284.534           1.385e+00     
-164.000         -90.000            4.937e-02           3.713e-02             189.499           1.224e-02             279.166           1.742e+00     
-163.000         -90.000            7.030e-02           5.750e-02             192.881           1.280e-02             273.615           2.164e+00     
