Theta [deg.]  Phi   [deg.]  Abs(Dir.)[      ]   Abs(Theta)[      ]  Phase(Theta)[deg.]  Abs(Phi  )[      ]  Phase(Phi  )[deg.]  Ax.Ratio[      ]    
------------------------------------------------------------------------------------------------------------------------------------------------------
-180.000         -90.000            3.898e-05           3.027e-07             188.730           3.868e-05              59.184           1.471e+01     
-179.000         -90.000            3.184e-03           3.143e-03             325.276           4.116e-05              63.822           8.839e+00     
-178.000         -90.000            1.077e-02           1.072e-02             325.784           5.288e-05              74.482           1.504e+01     
-177.000         -90.000            1.813e-02           1.805e-02             326.476           8.156e-05              84.526           1.687e+01     
-176.000         -90.000            2.077e-02           2.064e-02             327.671           1.330e-04              89.729           1.473e+01     
-175.000         -90.000            1.712e-02           1.692e-02             329.948           2.067e-04              89.788           1.046e+01     
-174.000         -90.000            9.548e-03           9.251e-03             335.091           2.970e-04              85.561           5.981e+00     
-173.000         -90.000            2.894e-03           2.494e-03             352.468           3.998e-04              77.833           2.509e+00     
-172.000         -90.000            1.536e-03           1.017e-03              80.455           5.185e-04              67.338           9.209e+00     
-171.000         -90.000            6.698e-03           6.032e-03             120.022           6.660e-04              54.980           3.391e+00     
-170.000         -90.000            1.570e-02           1.484e-02             129.048           8.580e-04              41.796           4.164e+00     
-169.000         -90.000            2.355e-02           2.245e-02             133.703           1.102e-03              28.635           4.690e+00     
-168.000         -90.000            2.598e-02           2.459e-02             137.923           1.390e-03              15.911           5.041e+00     
-167.000         -90.000            2.193e-02           2.024e-02             143.773           1.696e-03               3.628           5.666e+00     
-166.000         -90.000            1.427e-02           1.229e-02             154.726           1.985e-03             351.570           9.871e+00     
-165.000         -90.000            8.002e-03           5.771e-03             180.418           2.230e-03             339.481           6.077e+00     
-164.000         -90.000            7.336e-03           4.920e-03             228.987           2.415e-03             327.197           1.469e+00     
-163.000         -90.000            1.317e-02           1.063e-02             261.896           2.538e-03             314.684           2.830e+00     
