Theta [deg.]  Phi   [deg.]  Abs(Dir.)[      ]   Abs(Theta)[      ]  Phase(Theta)[deg.]  Abs(Phi  )[      ]  Phase(Phi  )[deg.]  Ax.Ratio[      ]    
------------------------------------------------------------------------------------------------------------------------------------------------------
-180.000         -90.000            1.534e-03           1.857e-08             330.278           1.534e-03             110.631           3.162e+02     
-179.000         -90.000            5.054e-03           3.528e-03             301.447           1.526e-03             109.938           1.082e+01     
-178.000         -90.000            1.458e-02           1.308e-02             301.638           1.503e-03             107.882           1.376e+01     
-177.000         -90.000            2.742e-02           2.595e-02             302.031           1.471e-03             104.504           1.467e+01     
-176.000         -90.000            3.995e-02           3.852e-02             302.665           1.434e-03              99.883           1.381e+01     
-175.000         -90.000            4.869e-02           4.729e-02             303.630           1.399e-03              94.151           1.208e+01     
-174.000         -90.000            5.126e-02           4.989e-02             305.089           1.371e-03              87.485           1.006e+01     
-173.000         -90.000            4.711e-02           4.576e-02             307.338           1.351e-03              80.096           8.035e+00     
-172.000         -90.000            3.760e-02           3.626e-02             310.961           1.339e-03              72.197           6.149e+00     
-171.000         -90.000            2.560e-02           2.428e-02             317.262           1.328e-03              63.952           4.486e+00     
-170.000         -90.000            1.467e-02           1.336e-02             329.532           1.311e-03              55.453           3.202e+00     
-169.000         -90.000            7.975e-03           6.692e-03             355.952           1.282e-03              46.700           3.203e+00     
-168.000         -90.000            7.429e-03           6.193e-03              38.463           1.236e-03              37.600           1.783e+02     
-167.000         -90.000            1.316e-02           1.199e-02              68.105           1.169e-03              27.970           5.263e+00     
-166.000         -90.000            2.352e-02           2.243e-02              82.239           1.087e-03              17.554           5.071e+00     
-165.000         -90.000            3.556e-02           3.456e-02              89.825           9.980e-04               6.043           5.921e+00     
-164.000         -90.000            4.593e-02           4.502e-02              94.801           9.166e-04             353.147           7.162e+00     
-163.000         -90.000            5.183e-02           5.097e-02              98.796           8.601e-04             338.738           8.932e+00     
