Theta [deg.]  Phi   [deg.]  Abs(Dir.)[      ]   Abs(Theta)[      ]  Phase(Theta)[deg.]  Abs(Phi  )[      ]  Phase(Phi  )[deg.]  Ax.Ratio[      ]    
------------------------------------------------------------------------------------------------------------------------------------------------------
-180.000         -90.000            1.400e-03           3.320e-08             187.564           1.399e-03             275.957           2.054e+02     
-179.000         -90.000            4.461e-03           3.069e-03             155.969           1.392e-03             275.418           1.971e+00     
-178.000         -90.000            1.267e-02           1.130e-02             156.116           1.370e-03             273.821           3.338e+00     
-177.000         -90.000            2.351e-02           2.218e-02             156.461           1.335e-03             271.188           4.537e+00     
-176.000         -90.000            3.367e-02           3.238e-02             157.035           1.292e-03             267.561           5.372e+00     
-175.000         -90.000            4.008e-02           3.883e-02             157.935           1.244e-03             263.006           5.799e+00     
-174.000         -90.000            4.084e-02           3.965e-02             159.339           1.194e-03             257.618           5.826e+00     
-173.000         -90.000            3.585e-02           3.471e-02             161.591           1.145e-03             251.519           5.505e+00     
-172.000         -90.000            2.674e-02           2.564e-02             165.422           1.096e-03             244.847           4.928e+00     
-171.000         -90.000            1.641e-02           1.537e-02             172.662           1.046e-03             237.734           4.282e+00     
-170.000         -90.000            8.100e-03           7.109e-03             188.785           9.902e-04             230.284           4.379e+00     
-169.000         -90.000            4.375e-03           3.450e-03             228.037           9.256e-04             222.548           2.556e+01     
-168.000         -90.000            6.375e-03           5.527e-03             274.539           8.482e-04             214.492           3.073e+00     
-167.000         -90.000            1.348e-02           1.272e-02             295.694           7.558e-04             205.982           4.103e+00     
-166.000         -90.000            2.353e-02           2.287e-02             305.053           6.505e-04             196.728           6.265e+00     
-165.000         -90.000            3.351e-02           3.297e-02             310.325           5.376e-04             186.243           9.504e+00     
-164.000         -90.000            4.048e-02           4.006e-02             314.068           4.270e-04             173.728           1.527e+01     
-163.000         -90.000            4.247e-02           4.214e-02             317.424           3.327e-04             158.024           3.221e+01     
