Theta [deg.]  Phi   [deg.]  Abs(Dir.)[      ]   Abs(Theta)[      ]  Phase(Theta)[deg.]  Abs(Phi  )[      ]  Phase(Phi  )[deg.]  Ax.Ratio[      ]    
------------------------------------------------------------------------------------------------------------------------------------------------------
-180.000         -90.000            4.583e-05           1.132e-06              28.871           4.469e-05             301.755           6.293e+00     
-179.000         -90.000            3.505e-03           3.453e-03             207.803           5.214e-05             304.736           8.199e+00     
-178.000         -90.000            1.189e-02           1.181e-02             208.235           7.772e-05             310.319           1.261e+01     
-177.000         -90.000            1.983e-02           1.970e-02             209.086           1.253e-04             314.447           1.301e+01     
-176.000         -90.000            2.225e-02           2.206e-02             210.676           1.900e-04             315.678           1.116e+01     
-175.000         -90.000            1.769e-02           1.744e-02             213.823           2.537e-04             313.911           8.425e+00     
-174.000         -90.000            9.248e-03           8.956e-03             221.247           2.920e-04             308.941           5.543e+00     
-173.000         -90.000            2.611e-03           2.320e-03             247.862           2.906e-04             299.871           3.769e+00     
-172.000         -90.000            2.453e-03           2.192e-03             330.461           2.612e-04             284.942           4.312e+00     
-171.000         -90.000            9.429e-03           9.187e-03             359.529           2.426e-04             262.668           6.201e+00     
-170.000         -90.000            1.973e-02           1.945e-02               8.113           2.832e-04             236.178           1.121e+01     
-169.000         -90.000            2.742e-02           2.701e-02              12.844           4.128e-04             212.809           2.401e+01     
-168.000         -90.000            2.811e-02           2.749e-02              17.154           6.204e-04             195.052           1.856e+02     
-167.000         -90.000            2.165e-02           2.080e-02              23.166           8.552e-04             180.953           1.351e+01     
-166.000         -90.000            1.218e-02           1.112e-02              34.967           1.052e-03             168.248           4.675e+00     
-165.000         -90.000            5.554e-03           4.385e-03              66.052           1.169e-03             155.288           1.938e+00     
-164.000         -90.000            5.856e-03           4.647e-03             122.940           1.209e-03             140.982           7.850e+00     
-163.000         -90.000            1.294e-02           1.172e-02             152.331           1.221e-03             124.899           7.288e+00     
