Theta [deg.]  Phi   [deg.]  Abs(Dir.)[      ]   Abs(Theta)[      ]  Phase(Theta)[deg.]  Abs(Phi  )[      ]  Phase(Phi  )[deg.]  Ax.Ratio[      ]    
------------------------------------------------------------------------------------------------------------------------------------------------------
-180.000         -90.000            4.090e-03           6.125e-09             335.578           4.090e-03              15.732           3.162e+02     
-179.000         -90.000            7.679e-03           3.574e-03             290.665           4.105e-03              14.956           1.129e+00     
-178.000         -90.000            1.782e-02           1.366e-02             290.770           4.158e-03              12.640           1.847e+00     
-177.000         -90.000            3.279e-02           2.852e-02             290.974           4.269e-03               8.894           2.663e+00     
-176.000         -90.000            5.004e-02           4.557e-02             291.285           4.470e-03               3.922           3.377e+00     
-175.000         -90.000            6.668e-02           6.188e-02             291.731           4.800e-03             358.026           3.974e+00     
-174.000         -90.000            7.997e-02           7.467e-02             292.352           5.298e-03             351.577           4.455e+00     
-173.000         -90.000            8.781e-02           8.181e-02             293.211           5.999e-03             344.954           4.841e+00     
-172.000         -90.000            8.909e-02           8.216e-02             294.405           6.931e-03             338.468           5.175e+00     
-171.000         -90.000            8.389e-02           7.578e-02             296.096           8.104e-03             332.330           5.546e+00     
-170.000         -90.000            7.345e-02           6.393e-02             298.556           9.512e-03             326.637           6.165e+00     
-169.000         -90.000            5.989e-02           4.876e-02             302.301           1.113e-02             321.400           7.729e+00     
-168.000         -90.000            4.592e-02           3.303e-02             308.376           1.289e-02             316.591           1.551e+01     
-167.000         -90.000            3.428e-02           1.953e-02             319.134           1.475e-02             312.144           1.654e+01     
-166.000         -90.000            2.727e-02           1.066e-02             339.776           1.661e-02             307.989           3.614e+00     
-165.000         -90.000            2.641e-02           8.026e-03              14.474           1.839e-02             304.057           1.730e+00     
-164.000         -90.000            3.214e-02           1.216e-02              46.800           1.997e-02             300.285           1.470e+00     
-163.000         -90.000            4.377e-02           2.248e-02              65.030           2.129e-02             296.615           2.071e+00     
