Theta [deg.]  Phi   [deg.]  Abs(Dir.)[      ]   Abs(Theta)[      ]  Phase(Theta)[deg.]  Abs(Phi  )[      ]  Phase(Phi  )[deg.]  Ax.Ratio[      ]    
------------------------------------------------------------------------------------------------------------------------------------------------------
-180.000         -90.000            9.330e-04           1.173e-07             233.940           9.328e-04             246.079           3.162e+02     
-179.000         -90.000            3.662e-03           2.735e-03             226.287           9.271e-04             245.477           6.850e+00     
-178.000         -90.000            1.078e-02           9.872e-03             226.454           9.097e-04             243.705           1.205e+01     
-177.000         -90.000            1.969e-02           1.881e-02             226.809           8.830e-04             240.805           1.993e+01     
-176.000         -90.000            2.715e-02           2.630e-02             227.415           8.504e-04             236.858           3.497e+01     
-175.000         -90.000            3.046e-02           2.964e-02             228.414           8.150e-04             231.986           9.945e+01     
-174.000         -90.000            2.845e-02           2.768e-02             230.087           7.789e-04             226.356           9.417e+01     
-173.000         -90.000            2.195e-02           2.120e-02             233.053           7.426e-04             220.161           2.475e+01     
-172.000         -90.000            1.339e-02           1.268e-02             238.945           7.043e-04             213.608           1.037e+01     
-171.000         -90.000            6.007e-03           5.346e-03             253.363           6.609e-04             206.857           4.165e+00     
-170.000         -90.000            2.614e-03           2.005e-03             297.546           6.085e-04             200.002           1.845e+00     
-169.000         -90.000            4.589e-03           4.045e-03             352.599           5.438e-04             193.041           8.745e+00     
-168.000         -90.000            1.139e-02           1.093e-02              12.039           4.656e-04             185.845           4.679e+01     
-167.000         -90.000            2.076e-02           2.039e-02              19.634           3.761e-04             178.105           2.038e+01     
-166.000         -90.000            2.952e-02           2.924e-02              23.670           2.811e-04             169.194           1.814e+01     
-165.000         -90.000            3.469e-02           3.450e-02              26.471           1.902e-04             157.825           1.798e+01     
-164.000         -90.000            3.455e-02           3.444e-02              29.058           1.159e-04             141.219           1.862e+01     
-163.000         -90.000            2.921e-02           2.914e-02              32.230           7.112e-05             114.247           2.044e+01     
