Theta [deg.]  Phi   [deg.]  Abs(Dir.)[      ]   Abs(Theta)[      ]  Phase(Theta)[deg.]  Abs(Phi  )[      ]  Phase(Phi  )[deg.]  Ax.Ratio[      ]    
------------------------------------------------------------------------------------------------------------------------------------------------------
-180.000         -90.000            5.825e-04           1.106e-08              64.885           5.825e-04             138.000           2.399e+02     
-179.000         -90.000            2.965e-03           2.379e-03             359.734           5.863e-04             138.058           3.489e+00     
-178.000         -90.000            9.122e-03           8.523e-03             359.912           5.988e-04             138.230           5.903e+00     
-177.000         -90.000            1.652e-02           1.590e-02               0.338           6.184e-04             138.364           7.747e+00     
-176.000         -90.000            2.212e-02           2.148e-02               1.086           6.424e-04             138.242           8.642e+00     
-175.000         -90.000            2.368e-02           2.301e-02               2.351           6.668e-04             137.622           8.471e+00     
-174.000         -90.000            2.062e-02           1.994e-02               4.550           6.871e-04             136.268           7.329e+00     
-173.000         -90.000            1.432e-02           1.362e-02               8.700           6.986e-04             133.956           5.502e+00     
-172.000         -90.000            7.455e-03           6.756e-03              17.922           6.987e-04             130.487           3.424e+00     
-171.000         -90.000            2.925e-03           2.238e-03              45.198           6.870e-04             125.678           1.852e+00     
-170.000         -90.000            2.612e-03           1.944e-03             109.141           6.671e-04             119.380           1.282e+01     
-169.000         -90.000            6.619e-03           5.974e-03             141.115           6.453e-04             111.522           6.677e+00     
-168.000         -90.000            1.325e-02           1.262e-02             151.860           6.302e-04             102.196           5.997e+00     
-167.000         -90.000            1.974e-02           1.911e-02             157.065           6.297e-04              91.716           6.097e+00     
-166.000         -90.000            2.339e-02           2.274e-02             160.577           6.494e-04              80.632           6.016e+00     
-165.000         -90.000            2.273e-02           2.204e-02             163.905           6.898e-04              69.575           5.670e+00     
-164.000         -90.000            1.808e-02           1.734e-02             168.287           7.461e-04              59.057           5.130e+00     
-163.000         -90.000            1.143e-02           1.063e-02             175.932           8.083e-04              49.345           4.644e+00     
