Theta [deg.]  Phi   [deg.]  Abs(Dir.)[      ]   Abs(Theta)[      ]  Phase(Theta)[deg.]  Abs(Phi  )[      ]  Phase(Phi  )[deg.]  Ax.Ratio[      ]    
------------------------------------------------------------------------------------------------------------------------------------------------------
-180.000         -90.000            2.468e-02           1.953e-08              45.999           2.468e-02              92.450           3.162e+02     
-179.000         -90.000            2.865e-02           4.089e-03               4.690           2.456e-02              92.148           2.454e+00     
-178.000         -90.000            3.992e-02           1.571e-02               4.795           2.422e-02              91.244           1.253e+00     
-177.000         -90.000            5.673e-02           3.306e-02               5.021           2.367e-02              89.734           1.211e+00     
-176.000         -90.000            7.646e-02           5.349e-02               5.367           2.297e-02              87.615           1.561e+00     
-175.000         -90.000            9.604e-02           7.389e-02               5.855           2.216e-02              84.884           1.888e+00     
-174.000         -90.000            1.125e-01           9.118e-02               6.520           2.129e-02              81.546           2.185e+00     
-173.000         -90.000            1.232e-01           1.028e-01               7.414           2.043e-02              77.619           2.450e+00     
-172.000         -90.000            1.268e-01           1.072e-01               8.616           1.963e-02              73.136           2.691e+00     
-171.000         -90.000            1.227e-01           1.037e-01              10.248           1.894e-02              68.152           2.925e+00     
-170.000         -90.000            1.116e-01           9.324e-02              12.501           1.840e-02              62.744           3.193e+00     
-169.000         -90.000            9.556e-02           7.754e-02              15.704           1.802e-02              57.013           3.595e+00     
-168.000         -90.000            7.701e-02           5.920e-02              20.438           1.781e-02              51.069           4.429e+00     
-167.000         -90.000            5.895e-02           4.118e-02              27.798           1.777e-02              45.029           7.218e+00     
-166.000         -90.000            4.421e-02           2.634e-02              39.896           1.787e-02              38.996           1.296e+02     
-165.000         -90.000            3.508e-02           1.700e-02              60.037           1.808e-02              33.056           4.171e+00     
-164.000         -90.000            3.295e-02           1.460e-02              88.321           1.835e-02              27.270           1.719e+00     
-163.000         -90.000            3.813e-02           1.949e-02             114.535           1.864e-02              21.672           1.056e+00     
