Theta [deg.]  Phi   [deg.]  Abs(Dir.)[      ]   Abs(Theta)[      ]  Phase(Theta)[deg.]  Abs(Phi  )[      ]  Phase(Phi  )[deg.]  Ax.Ratio[      ]    
------------------------------------------------------------------------------------------------------------------------------------------------------
-180.000         -90.000            7.940e-03           5.192e-08             135.014           7.940e-03             172.674           3.162e+02     
-179.000         -90.000            1.065e-02           2.741e-03             183.101           7.909e-03             172.268           1.209e+01     
-178.000         -90.000            1.823e-02           1.040e-02             183.202           7.826e-03             171.056           9.497e+00     
-177.000         -90.000            2.921e-02           2.151e-02             183.236           7.700e-03             169.047           9.150e+00     
-176.000         -90.000            4.146e-02           3.391e-02             183.265           7.546e-03             166.257           8.746e+00     
-175.000         -90.000            5.260e-02           4.521e-02             183.314           7.381e-03             162.718           8.061e+00     
-174.000         -90.000            6.047e-02           5.325e-02             183.412           7.224e-03             158.478           7.174e+00     
-173.000         -90.000            6.356e-02           5.647e-02             183.598           7.094e-03             153.605           6.191e+00     
-172.000         -90.000            6.127e-02           5.427e-02             183.939           7.005e-03             148.190           5.186e+00     
-171.000         -90.000            5.406e-02           4.709e-02             184.541           6.966e-03             142.339           4.205e+00     
-170.000         -90.000            4.331e-02           3.633e-02             185.623           6.982e-03             136.166           3.273e+00     
-169.000         -90.000            3.112e-02           2.407e-02             187.660           7.050e-03             129.784           2.405e+00     
-168.000         -90.000            1.987e-02           1.271e-02             191.950           7.164e-03             123.291           1.618e+00     
-167.000         -90.000            1.178e-02           4.469e-03             203.549           7.314e-03             116.762           1.288e+00     
-166.000         -90.000            8.515e-03           1.027e-03             253.533           7.488e-03             110.250           4.932e+00     
-165.000         -90.000            1.084e-02           3.171e-03             321.242           7.671e-03             103.783           3.313e+00     
-164.000         -90.000            1.852e-02           1.067e-02             337.264           7.851e-03              97.374           1.776e+00     
-163.000         -90.000            3.036e-02           2.234e-02             342.746           8.020e-03              91.021           1.847e+00     
