Theta [deg.]  Phi   [deg.]  Abs(Dir.)[      ]   Abs(Theta)[      ]  Phase(Theta)[deg.]  Abs(Phi  )[      ]  Phase(Phi  )[deg.]  Ax.Ratio[      ]    
------------------------------------------------------------------------------------------------------------------------------------------------------
-180.000         -90.000            1.219e-02           4.431e-08             222.753           1.219e-02             265.046           3.162e+02     
-179.000         -90.000            1.518e-02           3.047e-03             241.328           1.213e-02             264.677           6.137e+00     
-178.000         -90.000            2.359e-02           1.161e-02             241.392           1.198e-02             263.573           5.102e+00     
-177.000         -90.000            3.594e-02           2.420e-02             241.441           1.174e-02             261.735           5.981e+00     
-176.000         -90.000            5.006e-02           3.862e-02             241.511           1.144e-02             259.168           7.721e+00     
-175.000         -90.000            6.347e-02           5.235e-02             241.619           1.111e-02             255.888           1.058e+01     
-174.000         -90.000            7.381e-02           6.303e-02             241.792           1.078e-02             251.923           1.604e+01     
-173.000         -90.000            7.929e-02           6.881e-02             242.066           1.048e-02             247.320           3.222e+01     
-172.000         -90.000            7.896e-02           6.873e-02             242.500           1.023e-02             242.152           3.162e+02     
-171.000         -90.000            7.291e-02           6.284e-02             243.185           1.007e-02             236.515           2.492e+01     
-170.000         -90.000            6.220e-02           5.221e-02             244.287           9.991e-03             230.524           1.136e+01     
-169.000         -90.000            4.871e-02           3.871e-02             246.131           1.001e-02             224.301           6.503e+00     
-168.000         -90.000            3.481e-02           2.470e-02             249.438           1.011e-02             217.966           3.967e+00     
-167.000         -90.000            2.291e-02           1.262e-02             256.190           1.029e-02             211.622           2.458e+00     
-166.000         -90.000            1.509e-02           4.579e-03             273.707           1.052e-02             205.344           1.778e+00     
-165.000         -90.000            1.273e-02           1.959e-03             326.876           1.077e-02             199.183           3.189e+00     
-164.000         -90.000            1.627e-02           5.239e-03              15.316           1.103e-02             193.162           5.691e+01     
-163.000         -90.000            2.518e-02           1.390e-02              30.985           1.127e-02             187.283           4.794e+00     
