Theta [deg.]  Phi   [deg.]  Abs(Dir.)[      ]   Abs(Theta)[      ]  Phase(Theta)[deg.]  Abs(Phi  )[      ]  Phase(Phi  )[deg.]  Ax.Ratio[      ]    
------------------------------------------------------------------------------------------------------------------------------------------------------
-180.000         -90.000            7.641e-04           3.812e-08             332.684           7.641e-04              40.498           1.529e+02     
-179.000         -90.000            3.257e-03           2.491e-03             303.080           7.663e-04              40.532           1.832e+00     
-178.000         -90.000            9.649e-03           8.875e-03             303.261           7.739e-04              40.653           3.420e+00     
-177.000         -90.000            1.724e-02           1.645e-02             303.698           7.861e-04              40.725           4.613e+00     
-176.000         -90.000            2.284e-02           2.203e-02             304.465           8.013e-04              40.540           5.276e+00     
-175.000         -90.000            2.413e-02           2.331e-02             305.765           8.171e-04              39.858           5.356e+00     
-174.000         -90.000            2.065e-02           1.982e-02             308.038           8.307e-04              38.438           4.885e+00     
-173.000         -90.000            1.398e-02           1.314e-02             312.388           8.396e-04              36.059           3.984e+00     
-172.000         -90.000            7.020e-03           6.178e-03             322.344           8.427e-04              32.544           2.929e+00     
-171.000         -90.000            2.751e-03           1.910e-03             353.582           8.407e-04              27.772           3.584e+00     
-170.000         -90.000            2.962e-03           2.125e-03              60.149           8.368e-04              21.699           3.265e+00     
-169.000         -90.000            7.500e-03           6.664e-03              88.091           8.361e-04              14.389           2.974e+00     
-168.000         -90.000            1.436e-02           1.352e-02              97.705           8.437e-04               6.037           4.005e+00     
-167.000         -90.000            2.059e-02           1.973e-02             102.682           8.637e-04             356.951           4.982e+00     
-166.000         -90.000            2.355e-02           2.265e-02             106.372           8.965e-04             347.503           5.794e+00     
-165.000         -90.000            2.202e-02           2.108e-02             110.252           9.387e-04             338.037           6.530e+00     
-164.000         -90.000            1.676e-02           1.578e-02             115.802           9.828e-04             328.790           7.688e+00     
-163.000         -90.000            1.015e-02           9.130e-03             126.059           1.019e-03             319.871           1.387e+01     
