Theta [deg.]  Phi   [deg.]  Abs(Dir.)[      ]   Abs(Theta)[      ]  Phase(Theta)[deg.]  Abs(Phi  )[      ]  Phase(Phi  )[deg.]  Ax.Ratio[      ]    
------------------------------------------------------------------------------------------------------------------------------------------------------
-180.000         -90.000            1.898e-04           1.411e-10             272.350           1.898e-04             134.611           3.162e+02     
-179.000         -90.000            3.141e-03           2.953e-03              75.992           1.875e-04             134.038           4.764e+00     
-178.000         -90.000            1.107e-02           1.089e-02              76.153           1.807e-04             132.289           9.398e+00     
-177.000         -90.000            2.151e-02           2.134e-02              76.449           1.704e-04             129.325           1.408e+01     
-176.000         -90.000            3.123e-02           3.107e-02              76.932           1.579e-04             125.103           1.887e+01     
-175.000         -90.000            3.723e-02           3.708e-02              77.695           1.449e-04             119.599           2.400e+01     
-174.000         -90.000            3.773e-02           3.760e-02              78.905           1.331e-04             112.856           3.017e+01     
-173.000         -90.000            3.269e-02           3.257e-02              80.883           1.234e-04             105.029           3.984e+01     
-172.000         -90.000            2.378e-02           2.367e-02              84.329           1.165e-04              96.391           6.853e+01     
-171.000         -90.000            1.386e-02           1.375e-02              91.043           1.123e-04              87.300           1.709e+02     
-170.000         -90.000            6.034e-03           5.923e-03             106.812           1.102e-04              78.090           1.548e+01     
-169.000         -90.000            2.694e-03           2.585e-03             149.242           1.091e-04              68.969           4.946e+00     
-168.000         -90.000            4.776e-03           4.668e-03             198.782           1.078e-04              59.967           1.012e+01     
-167.000         -90.000            1.150e-02           1.139e-02             218.645           1.056e-04              50.937           4.923e+01     
-166.000         -90.000            2.065e-02           2.055e-02             226.922           1.019e-04              41.593           1.537e+02     
-165.000         -90.000            2.931e-02           2.922e-02             231.418           9.710e-05              31.568           5.124e+01     
-164.000         -90.000            3.477e-02           3.468e-02             234.519           9.233e-05              20.488           3.469e+01     
-163.000         -90.000            3.538e-02           3.529e-02             237.280           8.940e-05               8.129           2.629e+01     
