Theta [deg.]  Phi   [deg.]  Abs(Dir.)[      ]   Abs(Theta)[      ]  Phase(Theta)[deg.]  Abs(Phi  )[      ]  Phase(Phi  )[deg.]  Ax.Ratio[      ]    
------------------------------------------------------------------------------------------------------------------------------------------------------
-180.000         -90.000            1.513e-04           2.460e-09              19.165           1.513e-04             330.998           3.162e+02     
-179.000         -90.000            2.833e-03           2.683e-03             216.312           1.496e-04             330.655           4.694e+00     
-178.000         -90.000            1.012e-02           9.973e-03             216.474           1.445e-04             329.638           9.057e+00     
-177.000         -90.000            1.992e-02           1.978e-02             216.782           1.362e-04             327.888           1.293e+01     
-176.000         -90.000            2.944e-02           2.931e-02             217.281           1.254e-04             325.304           1.609e+01     
-175.000         -90.000            3.600e-02           3.589e-02             218.052           1.127e-04             321.731           1.837e+01     
-174.000         -90.000            3.781e-02           3.771e-02             219.241           9.908e-05             316.953           1.969e+01     
-173.000         -90.000            3.446e-02           3.437e-02             221.112           8.560e-05             310.693           2.004e+01     
-172.000         -90.000            2.702e-02           2.695e-02             224.198           7.340e-05             302.646           1.956e+01     
-171.000         -90.000            1.775e-02           1.768e-02             229.712           6.364e-05             292.495           1.876e+01     
-170.000         -90.000            9.328e-03           9.271e-03             240.909           5.737e-05             280.245           2.013e+01     
-169.000         -90.000            4.165e-03           4.110e-03             267.291           5.543e-05             266.402           3.162e+02     
-168.000         -90.000            3.653e-03           3.595e-03             314.668           5.841e-05             252.025           8.863e+00     
-167.000         -90.000            7.813e-03           7.746e-03             345.943           6.653e-05             238.280           1.133e+01     
-166.000         -90.000            1.531e-02           1.524e-02             359.314           7.967e-05             225.875           1.909e+01     
-165.000         -90.000            2.390e-02           2.380e-02               6.024           9.736e-05             214.942           3.244e+01     
-164.000         -90.000            3.105e-02           3.093e-02              10.173           1.189e-04             205.267           6.216e+01     
-163.000         -90.000            3.472e-02           3.458e-02              13.349           1.434e-04             196.530           2.809e+02     
