Theta [deg.]  Phi   [deg.]  Abs(Dir.)[      ]   Abs(Theta)[      ]  Phase(Theta)[deg.]  Abs(Phi  )[      ]  Phase(Phi  )[deg.]  Ax.Ratio[      ]    
------------------------------------------------------------------------------------------------------------------------------------------------------
-180.000         -90.000            2.965e-04           6.834e-10             101.666           2.965e-04             334.763           3.162e+02     
-179.000         -90.000            3.188e-03           2.893e-03             286.758           2.949e-04             334.307           4.453e+00     
-178.000         -90.000            1.108e-02           1.079e-02             286.894           2.904e-04             332.952           8.575e+00     
-177.000         -90.000            2.180e-02           2.152e-02             287.146           2.837e-04             330.713           1.272e+01     
-176.000         -90.000            3.245e-02           3.218e-02             287.554           2.760e-04             327.621           1.686e+01     
-175.000         -90.000            4.015e-02           3.988e-02             288.185           2.686e-04             323.740           2.105e+01     
-174.000         -90.000            4.285e-02           4.259e-02             289.157           2.628e-04             319.183           2.556e+01     
-173.000         -90.000            3.993e-02           3.967e-02             290.686           2.597e-04             314.113           3.126e+01     
-172.000         -90.000            3.230e-02           3.204e-02             293.180           2.600e-04             308.734           4.171e+01     
-171.000         -90.000            2.212e-02           2.186e-02             297.564           2.640e-04             303.282           9.242e+01     
-170.000         -90.000            1.226e-02           1.198e-02             306.243           2.714e-04             297.968           4.720e+01     
-169.000         -90.000            5.402e-03           5.121e-03             326.769           2.815e-04             292.964           7.962e+00     
-168.000         -90.000            3.398e-03           3.104e-03              13.219           2.931e-04             288.382           3.270e+00     
-167.000         -90.000            6.719e-03           6.414e-03              53.024           3.052e-04             284.279           5.991e+00     
-166.000         -90.000            1.438e-02           1.407e-02              69.378           3.163e-04             280.660           1.305e+01     
-165.000         -90.000            2.424e-02           2.391e-02              76.909           3.255e-04             277.503           2.466e+01     
-164.000         -90.000            3.359e-02           3.326e-02              81.274           3.317e-04             274.766           4.332e+01     
-163.000         -90.000            3.991e-02           3.958e-02              84.412           3.345e-04             272.395           7.897e+01     
