Theta [deg.]  Phi   [deg.]  Abs(Dir.)[      ]   Abs(Theta)[      ]  Phase(Theta)[deg.]  Abs(Phi  )[      ]  Phase(Phi  )[deg.]  Ax.Ratio[      ]    
------------------------------------------------------------------------------------------------------------------------------------------------------
-180.000         -90.000            7.995e-04           5.600e-10             192.034           7.995e-04             102.592           3.162e+02     
-179.000         -90.000            3.498e-03           2.700e-03             276.884           7.978e-04             102.525           2.421e+01     
-178.000         -90.000            1.099e-02           1.020e-02             277.039           7.931e-04             102.325           4.192e+01     
-177.000         -90.000            2.159e-02           2.081e-02             277.299           7.849e-04             101.981           6.545e+01     
-176.000         -90.000            3.294e-02           3.217e-02             277.701           7.728e-04             101.473           1.004e+02     
-175.000         -90.000            4.252e-02           4.177e-02             278.296           7.563e-04             100.774           1.750e+02     
-174.000         -90.000            4.823e-02           4.749e-02             279.167           7.348e-04              99.850           3.162e+02     
-173.000         -90.000            4.886e-02           4.815e-02             280.449           7.081e-04              98.657           2.676e+02     
-172.000         -90.000            4.437e-02           4.369e-02             282.376           6.759e-04              97.142           8.949e+01     
-171.000         -90.000            3.586e-02           3.522e-02             285.392           6.386e-04              95.238           4.287e+01     
-170.000         -90.000            2.536e-02           2.476e-02             290.415           5.969e-04              92.870           2.183e+01     
-169.000         -90.000            1.532e-02           1.477e-02             299.592           5.522e-04              89.947           1.075e+01     
-168.000         -90.000            8.091e-03           7.584e-03             318.346           5.063e-04              86.368           5.043e+00     
-167.000         -90.000            5.386e-03           4.924e-03             354.472           4.615e-04              82.025           3.270e+00     
-166.000         -90.000            7.912e-03           7.492e-03              31.243           4.203e-04              76.823           6.079e+00     
-165.000         -90.000            1.522e-02           1.484e-02              50.735           3.853e-04              70.708           1.858e+01     
-164.000         -90.000            2.583e-02           2.547e-02              60.490           3.592e-04              63.713           1.518e+02     
-163.000         -90.000            3.752e-02           3.717e-02              66.172           3.440e-04              56.003           5.941e+01     
