Theta [deg.]  Phi   [deg.]  Abs(Dir.)[      ]   Abs(Theta)[      ]  Phase(Theta)[deg.]  Abs(Phi  )[      ]  Phase(Phi  )[deg.]  Ax.Ratio[      ]    
------------------------------------------------------------------------------------------------------------------------------------------------------
-180.000         -90.000            3.165e-04           4.861e-09             352.104           3.165e-04             152.640           3.162e+02     
-179.000         -90.000            3.140e-03           2.819e-03             273.306           3.210e-04             152.061           3.582e+00     
-178.000         -90.000            1.061e-02           1.028e-02             273.379           3.345e-04             150.370           6.675e+00     
-177.000         -90.000            2.010e-02           1.974e-02             273.582           3.568e-04             147.728           9.235e+00     
-176.000         -90.000            2.827e-02           2.789e-02             273.949           3.873e-04             144.351           1.108e+01     
-175.000         -90.000            3.229e-02           3.186e-02             274.576           4.244e-04             140.448           1.215e+01     
-174.000         -90.000            3.078e-02           3.031e-02             275.657           4.656e-04             136.182           1.253e+01     
-173.000         -90.000            2.435e-02           2.384e-02             277.600           5.076e-04             131.648           1.242e+01     
-172.000         -90.000            1.534e-02           1.480e-02             281.459           5.462e-04             126.879           1.249e+01     
-171.000         -90.000            6.988e-03           6.411e-03             290.797           5.773e-04             121.856           1.889e+01     
-170.000         -90.000            2.266e-03           1.668e-03             324.057           5.976e-04             116.522           4.696e+00     
-169.000         -90.000            2.861e-03           2.256e-03              37.384           6.055e-04             110.803           2.072e+00     
-168.000         -90.000            8.580e-03           7.979e-03              62.050           6.009e-04             104.618           5.614e+00     
-167.000         -90.000            1.743e-02           1.685e-02              69.851           5.861e-04              97.899           1.171e+01     
-166.000         -90.000            2.635e-02           2.579e-02              73.592           5.646e-04              90.607           2.356e+01     
-165.000         -90.000            3.225e-02           3.171e-02              76.053           5.408e-04              82.770           6.657e+01     
-164.000         -90.000            3.313e-02           3.261e-02              78.301           5.188e-04              74.504           1.216e+02     
-163.000         -90.000            2.873e-02           2.823e-02              81.120           5.014e-04              66.025           2.929e+01     
