Theta [deg.]  Phi   [deg.]  Abs(Dir.)[      ]   Abs(Theta)[      ]  Phase(Theta)[deg.]  Abs(Phi  )[      ]  Phase(Phi  )[deg.]  Ax.Ratio[      ]    
------------------------------------------------------------------------------------------------------------------------------------------------------
-180.000         -90.000            5.066e-02           1.988e-08             242.216           5.066e-02             144.116           3.162e+02     
-179.000         -90.000            5.254e-02           2.137e-03             114.141           5.041e-02             144.018           1.006e+01     
-178.000         -90.000            5.791e-02           8.244e-03             114.057           4.966e-02             143.722           5.604e+00     
-177.000         -90.000            6.585e-02           1.741e-02             113.992           4.844e-02             143.225           4.417e+00     
-176.000         -90.000            7.504e-02           2.825e-02             113.927           4.679e-02             142.523           4.066e+00     
-175.000         -90.000            8.391e-02           3.917e-02             113.863           4.475e-02             141.611           4.059e+00     
-174.000         -90.000            9.091e-02           4.854e-02             113.813           4.237e-02             140.481           4.230e+00     
-173.000         -90.000            9.471e-02           5.498e-02             113.793           3.973e-02             139.123           4.515e+00     
-172.000         -90.000            9.447e-02           5.757e-02             113.831           3.690e-02             137.524           4.897e+00     
-171.000         -90.000            8.989e-02           5.595e-02             113.970           3.394e-02             135.670           5.393e+00     
-170.000         -90.000            8.134e-02           5.040e-02             114.274           3.094e-02             133.543           6.077e+00     
-169.000         -90.000            6.972e-02           4.177e-02             114.863           2.796e-02             131.122           7.148e+00     
-168.000         -90.000            5.639e-02           3.133e-02             115.955           2.506e-02             128.384           9.242e+00     
-167.000         -90.000            4.292e-02           2.062e-02             118.019           2.230e-02             125.305           1.572e+01     
-166.000         -90.000            3.092e-02           1.120e-02             122.255           1.972e-02             121.858           3.005e+02     
-165.000         -90.000            2.176e-02           4.393e-03             132.819           1.737e-02             118.020           9.651e+00     
-164.000         -90.000            1.643e-02           1.168e-03             170.469           1.526e-02             113.770           4.430e+00     
-163.000         -90.000            1.537e-02           1.956e-03             238.872           1.342e-02             109.100           3.629e+00     
