Theta [deg.]  Phi   [deg.]  Abs(Dir.)[      ]   Abs(Theta)[      ]  Phase(Theta)[deg.]  Abs(Phi  )[      ]  Phase(Phi  )[deg.]  Ax.Ratio[      ]    
------------------------------------------------------------------------------------------------------------------------------------------------------
-180.000         -90.000            8.119e-03           6.391e-09             258.358           8.119e-03             127.318           3.162e+02     
-179.000         -90.000            1.272e-02           4.626e-03             205.468           8.097e-03             127.189           1.418e+00     
-178.000         -90.000            2.563e-02           1.760e-02             205.556           8.033e-03             126.798           1.555e+00     
-177.000         -90.000            4.433e-02           3.641e-02             205.730           7.926e-03             126.148           2.199e+00     
-176.000         -90.000            6.520e-02           5.742e-02             206.004           7.776e-03             125.243           2.764e+00     
-175.000         -90.000            8.418e-02           7.660e-02             206.409           7.584e-03             124.087           3.213e+00     
-174.000         -90.000            9.762e-02           9.027e-02             206.995           7.349e-03             122.683           3.525e+00     
-173.000         -90.000            1.029e-01           9.586e-02             207.840           7.073e-03             121.033           3.688e+00     
-172.000         -90.000            9.914e-02           9.238e-02             209.077           6.758e-03             119.137           3.697e+00     
-171.000         -90.000            8.704e-02           8.063e-02             210.929           6.407e-03             116.993           3.557e+00     
-170.000         -90.000            6.903e-02           6.301e-02             213.832           6.025e-03             114.589           3.285e+00     
-169.000         -90.000            4.870e-02           4.308e-02             218.690           5.616e-03             111.912           2.928e+00     
-168.000         -90.000            3.007e-02           2.489e-02             227.690           5.189e-03             108.941           2.640e+00     
-167.000         -90.000            1.691e-02           1.216e-02             246.701           4.753e-03             105.647           3.230e+00     
-166.000         -90.000            1.196e-02           7.640e-03             285.139           4.317e-03             101.992           3.791e+01     
-165.000         -90.000            1.644e-02           1.255e-02             323.501           3.892e-03              97.934           2.957e+00     
-164.000         -90.000            2.988e-02           2.639e-02             342.570           3.488e-03              93.423           2.999e+00     
-163.000         -90.000            5.014e-02           4.702e-02             351.822           3.116e-03              88.414           3.914e+00     
