Theta [deg.]  Phi   [deg.]  Abs(Dir.)[      ]   Abs(Theta)[      ]  Phase(Theta)[deg.]  Abs(Phi  )[      ]  Phase(Phi  )[deg.]  Ax.Ratio[      ]    
------------------------------------------------------------------------------------------------------------------------------------------------------
-180.000         -90.000            3.525e-04           5.832e-09             274.996           3.525e-04              64.613           3.162e+02     
-179.000         -90.000            3.028e-03           2.672e-03             217.142           3.566e-04              64.150           6.682e+00     
-178.000         -90.000            1.006e-02           9.695e-03             217.230           3.688e-04              62.782           1.226e+01     
-177.000         -90.000            1.888e-02           1.849e-02             217.457           3.885e-04              60.594           1.787e+01     
-176.000         -90.000            2.624e-02           2.583e-02             217.867           4.144e-04              57.693           2.361e+01     
-175.000         -90.000            2.949e-02           2.904e-02             218.570           4.446e-04              54.183           3.046e+01     
-174.000         -90.000            2.747e-02           2.700e-02             219.789           4.765e-04              50.139           4.261e+01     
-173.000         -90.000            2.101e-02           2.050e-02             222.013           5.072e-04              45.598           1.042e+02     
-172.000         -90.000            1.254e-02           1.201e-02             226.579           5.337e-04              40.562           4.724e+01     
-171.000         -90.000            5.228e-03           4.675e-03             238.411           5.538e-04              35.004           8.056e+00     
-170.000         -90.000            1.794e-03           1.228e-03             284.038           5.664e-04              28.883           1.601e+00     
-169.000         -90.000            3.515e-03           2.943e-03             350.327           5.718e-04              22.161           4.935e+00     
-168.000         -90.000            9.772e-03           9.200e-03               8.555           5.716e-04              14.825           3.900e+01     
-167.000         -90.000            1.828e-02           1.772e-02              14.983           5.687e-04               6.914           4.101e+01     
-166.000         -90.000            2.597e-02           2.540e-02              18.345           5.661e-04             358.532           2.015e+01     
-165.000         -90.000            3.004e-02           2.948e-02              20.785           5.664e-04             349.864           1.424e+01     
-164.000         -90.000            2.907e-02           2.850e-02              23.284           5.709e-04             341.160           1.065e+01     
-163.000         -90.000            2.345e-02           2.287e-02              26.763           5.792e-04             332.689           7.829e+00     
