Theta [deg.]  Phi   [deg.]  Abs(Dir.)[      ]   Abs(Theta)[      ]  Phase(Theta)[deg.]  Abs(Phi  )[      ]  Phase(Phi  )[deg.]  Ax.Ratio[      ]    
------------------------------------------------------------------------------------------------------------------------------------------------------
-180.000         -90.000            9.727e-04           1.654e-08             184.430           9.726e-04             287.974           2.494e+02     
-179.000         -90.000            5.843e-03           4.854e-03              20.989           9.893e-04             287.958           2.220e+00     
-178.000         -90.000            1.802e-02           1.698e-02              21.153           1.036e-03             287.838           4.056e+00     
-177.000         -90.000            3.134e-02           3.023e-02              21.507           1.107e-03             287.511           5.240e+00     
-176.000         -90.000            3.909e-02           3.790e-02              22.164           1.189e-03             286.847           5.672e+00     
-175.000         -90.000            3.740e-02           3.613e-02              23.386           1.266e-03             285.702           5.395e+00     
-174.000         -90.000            2.720e-02           2.588e-02              25.833           1.317e-03             283.931           4.541e+00     
-173.000         -90.000            1.378e-02           1.245e-02              31.706           1.323e-03             281.363           3.319e+00     
-172.000         -90.000            4.089e-03           2.817e-03              54.010           1.271e-03             277.782           2.761e+00     
-171.000         -90.000            3.259e-03           2.098e-03             146.803           1.161e-03             272.879           2.109e+00     
-170.000         -90.000            1.202e-02           1.101e-02             176.180           1.006e-03             266.196           3.308e+00     
-169.000         -90.000            2.632e-02           2.549e-02             183.529           8.319e-04             257.081           5.787e+00     
-168.000         -90.000            3.938e-02           3.870e-02             187.152           6.736e-04             244.755           9.022e+00     
-167.000         -90.000            4.498e-02           4.442e-02             190.055           5.645e-04             228.784           1.429e+01     
-166.000         -90.000            4.059e-02           4.007e-02             193.591           5.277e-04             210.139           3.096e+01     
-165.000         -90.000            2.855e-02           2.799e-02             199.468           5.689e-04             191.528           5.179e+01     
-164.000         -90.000            1.496e-02           1.429e-02             212.034           6.741e-04             175.426           7.960e+00     
-163.000         -90.000            6.754e-03           5.941e-03             245.398           8.126e-04             162.457           2.731e+00     
