Theta [deg.]  Phi   [deg.]  Abs(Dir.)[      ]   Abs(Theta)[      ]  Phase(Theta)[deg.]  Abs(Phi  )[      ]  Phase(Phi  )[deg.]  Ax.Ratio[      ]    
------------------------------------------------------------------------------------------------------------------------------------------------------
-180.000         -90.000            4.502e-03           3.365e-09             177.293           4.502e-03              32.356           3.162e+02     
-179.000         -90.000            8.684e-03           4.191e-03             134.168           4.493e-03              32.237           1.237e+00     
-178.000         -90.000            2.038e-02           1.591e-02             134.283           4.467e-03              31.876           1.966e+00     
-177.000         -90.000            3.724e-02           3.281e-02             134.491           4.424e-03              31.276           2.820e+00     
-176.000         -90.000            5.586e-02           5.150e-02             134.813           4.361e-03              30.440           3.568e+00     
-175.000         -90.000            7.253e-02           6.826e-02             135.287           4.277e-03              29.370           4.175e+00     
-174.000         -90.000            8.392e-02           7.975e-02             135.970           4.170e-03              28.068           4.619e+00     
-173.000         -90.000            8.780e-02           8.376e-02             136.958           4.039e-03              26.531           4.889e+00     
-172.000         -90.000            8.346e-02           7.958e-02             138.406           3.882e-03              24.754           4.983e+00     
-171.000         -90.000            7.189e-02           6.819e-02             140.588           3.701e-03              22.728           4.916e+00     
-170.000         -90.000            5.551e-02           5.201e-02             144.045           3.495e-03              20.432           4.732e+00     
-169.000         -90.000            3.774e-02           3.447e-02             149.930           3.268e-03              17.841           4.573e+00     
-168.000         -90.000            2.229e-02           1.927e-02             161.078           3.024e-03              14.920           5.046e+00     
-167.000         -90.000            1.245e-02           9.681e-03             184.584           2.770e-03              11.621           1.957e+01     
-166.000         -90.000            1.041e-02           7.894e-03             225.210           2.513e-03               7.888           3.574e+00     
-165.000         -90.000            1.685e-02           1.459e-02             257.350           2.260e-03               3.654           2.685e+00     
-164.000         -90.000            3.083e-02           2.881e-02             273.006           2.021e-03             358.848           3.787e+00     
-163.000         -90.000            4.998e-02           4.818e-02             281.087           1.803e-03             353.405           5.444e+00     
