Theta [deg.]  Phi   [deg.]  Abs(Dir.)[      ]   Abs(Theta)[      ]  Phase(Theta)[deg.]  Abs(Phi  )[      ]  Phase(Phi  )[deg.]  Ax.Ratio[      ]    
------------------------------------------------------------------------------------------------------------------------------------------------------
-180.000         -90.000            2.671e-03           3.448e-08              85.374           2.671e-03             121.670           3.162e+02     
-179.000         -90.000            8.300e-03           5.626e-03              33.954           2.674e-03             121.691           1.454e+00     
-178.000         -90.000            2.181e-02           1.913e-02              34.264           2.682e-03             121.696           2.674e+00     
-177.000         -90.000            3.519e-02           3.250e-02              34.966           2.692e-03             121.535           3.482e+00     
-176.000         -90.000            4.056e-02           3.786e-02              36.277           2.695e-03             120.987           3.767e+00     
-175.000         -90.000            3.485e-02           3.217e-02              38.777           2.679e-03             119.800           3.516e+00     
-174.000         -90.000            2.164e-02           1.901e-02              44.184           2.631e-03             117.721           2.839e+00     
-173.000         -90.000            8.974e-03           6.430e-03              60.043           2.543e-03             114.521           2.290e+00     
-172.000         -90.000            4.525e-03           2.115e-03             127.082           2.410e-03             109.996           6.672e+00     
-171.000         -90.000            1.106e-02           8.828e-03             178.560           2.236e-03             103.966           2.109e+00     
-170.000         -90.000            2.483e-02           2.279e-02             191.186           2.037e-03              96.278           3.360e+00     
-169.000         -90.000            3.778e-02           3.595e-02             196.900           1.831e-03              86.822           4.747e+00     
-168.000         -90.000            4.244e-02           4.080e-02             201.309           1.643e-03              75.588           6.225e+00     
-167.000         -90.000            3.627e-02           3.478e-02             206.710           1.489e-03              62.726           8.452e+00     
-166.000         -90.000            2.320e-02           2.182e-02             216.203           1.381e-03              48.605           1.963e+01     
-165.000         -90.000            1.131e-02           9.991e-03             238.393           1.318e-03              33.770           7.344e+00     
-164.000         -90.000            8.126e-03           6.837e-03             287.180           1.288e-03              18.803           2.305e+00     
-163.000         -90.000            1.623e-02           1.496e-02             325.137           1.276e-03               4.132           5.731e+00     
