Theta [deg.]  Phi   [deg.]  Abs(Dir.)[      ]   Abs(Theta)[      ]  Phase(Theta)[deg.]  Abs(Phi  )[      ]  Phase(Phi  )[deg.]  Ax.Ratio[      ]    
------------------------------------------------------------------------------------------------------------------------------------------------------
-180.000         -90.000            5.936e-03           2.914e-09              13.683           5.936e-03             166.230           3.162e+02     
-179.000         -90.000            9.886e-03           4.009e-03             193.204           5.877e-03             166.082           4.231e+00     
-178.000         -90.000            2.102e-02           1.531e-02             193.298           5.701e-03             165.644           4.630e+00     
-177.000         -90.000            3.726e-02           3.184e-02             193.442           5.418e-03             164.902           5.763e+00     
-176.000         -90.000            5.559e-02           5.055e-02             193.663           5.042e-03             163.832           6.854e+00     
-175.000         -90.000            7.262e-02           6.803e-02             193.987           4.591e-03             162.398           7.715e+00     
-174.000         -90.000            8.520e-02           8.111e-02             194.457           4.087e-03             160.547           8.267e+00     
-173.000         -90.000            9.100e-02           8.745e-02             195.138           3.553e-03             158.202           8.473e+00     
-172.000         -90.000            8.898e-02           8.596e-02             196.131           3.016e-03             155.251           8.324e+00     
-171.000         -90.000            7.953e-02           7.704e-02             197.609           2.497e-03             151.535           7.834e+00     
-170.000         -90.000            6.442e-02           6.240e-02             199.892           2.019e-03             146.838           7.040e+00     
-169.000         -90.000            4.645e-02           4.485e-02             203.612           1.600e-03             140.861           6.002e+00     
-168.000         -90.000            2.897e-02           2.772e-02             210.203           1.254e-03             133.234           4.837e+00     
-167.000         -90.000            1.522e-02           1.423e-02             223.434           9.916e-04             123.594           3.853e+00     
-166.000         -90.000            7.808e-03           6.991e-03             252.688           8.169e-04             111.825           4.975e+00     
-165.000         -90.000            8.189e-03           7.460e-03             296.567           7.291e-04              98.439           1.120e+01     
-164.000         -90.000            1.646e-02           1.574e-02             323.704           7.232e-04              84.732           5.513e+00     
-163.000         -90.000            3.135e-02           3.056e-02             336.142           7.897e-04              72.219           6.258e+00     
