Theta [deg.]  Phi   [deg.]  Abs(Dir.)[      ]   Abs(Theta)[      ]  Phase(Theta)[deg.]  Abs(Phi  )[      ]  Phase(Phi  )[deg.]  Ax.Ratio[      ]    
------------------------------------------------------------------------------------------------------------------------------------------------------
-180.000         -90.000            3.496e-03           1.962e-06             132.263           3.494e-03              47.544           4.238e+01     
-179.000         -90.000            8.913e-03           5.387e-03             233.619           3.526e-03              47.391           1.880e+01     
-178.000         -90.000            2.237e-02           1.875e-02             234.517           3.619e-03              46.910           2.047e+01     
-177.000         -90.000            3.675e-02           3.299e-02             235.373           3.760e-03              46.036           2.029e+01     
-176.000         -90.000            4.448e-02           4.056e-02             236.656           3.927e-03              44.680           1.693e+01     
-175.000         -90.000            4.166e-02           3.756e-02             238.873           4.095e-03              42.749           1.201e+01     
-174.000         -90.000            3.004e-02           2.581e-02             243.216           4.232e-03              40.160           7.201e+00     
-173.000         -90.000            1.616e-02           1.184e-02             253.739           4.314e-03              36.855           3.479e+00     
-172.000         -90.000            7.740e-03           3.418e-03             290.314           4.322e-03              32.800           1.283e+00     
-171.000         -90.000            9.600e-03           5.353e-03             358.894           4.248e-03              27.996           3.882e+00     
-170.000         -90.000            2.104e-02           1.695e-02              21.987           4.094e-03              22.482           2.922e+02     
-169.000         -90.000            3.620e-02           3.233e-02              29.856           3.869e-03              16.337           1.377e+01     
-168.000         -90.000            4.715e-02           4.356e-02              33.930           3.587e-03               9.684           9.075e+00     
-167.000         -90.000            4.807e-02           4.481e-02              37.048           3.258e-03               2.678           6.902e+00     
-166.000         -90.000            3.829e-02           3.540e-02              40.731           2.891e-03             355.488           5.136e+00     
-165.000         -90.000            2.268e-02           2.018e-02              47.298           2.495e-03             348.284           3.437e+00     
-164.000         -90.000            9.133e-03           7.051e-03              65.078           2.081e-03             341.221           1.860e+00     
-163.000         -90.000            4.551e-03           2.887e-03             127.899           1.664e-03             334.455           4.418e+00     
