Theta [deg.]  Phi   [deg.]  Abs(Dir.)[      ]   Abs(Theta)[      ]  Phase(Theta)[deg.]  Abs(Phi  )[      ]  Phase(Phi  )[deg.]  Ax.Ratio[      ]    
------------------------------------------------------------------------------------------------------------------------------------------------------
-180.000         -90.000            3.957e-03           2.111e-06              56.451           3.955e-03             315.235           4.412e+01     
-179.000         -90.000            8.672e-03           4.682e-03             168.629           3.991e-03             315.170           3.340e+00     
-178.000         -90.000            2.041e-02           1.632e-02             169.602           4.094e-03             314.936           4.150e+00     
-177.000         -90.000            3.282e-02           2.857e-02             170.561           4.250e-03             314.425           4.845e+00     
-176.000         -90.000            3.927e-02           3.483e-02             172.018           4.437e-03             313.493           4.866e+00     
-175.000         -90.000            3.645e-02           3.183e-02             174.558           4.624e-03             311.989           4.204e+00     
-174.000         -90.000            2.621e-02           2.143e-02             179.593           4.780e-03             309.784           3.063e+00     
-173.000         -90.000            1.447e-02           9.597e-03             191.991           4.876e-03             306.786           1.764e+00     
-172.000         -90.000            8.012e-03           3.118e-03             233.421           4.893e-03             302.947           1.540e+00     
-171.000         -90.000            1.067e-02           5.841e-03             295.128           4.826e-03             298.266           3.668e+01     
-170.000         -90.000            2.125e-02           1.657e-02             315.819           4.678e-03             292.803           6.006e+00     
-169.000         -90.000            3.416e-02           2.970e-02             323.416           4.461e-03             286.670           4.750e+00     
-168.000         -90.000            4.242e-02           3.824e-02             327.493           4.184e-03             280.038           4.321e+00     
-167.000         -90.000            4.143e-02           3.758e-02             330.701           3.854e-03             273.106           3.816e+00     
-166.000         -90.000            3.147e-02           2.800e-02             334.637           3.473e-03             266.078           3.107e+00     
-165.000         -90.000            1.756e-02           1.452e-02             342.107           3.043e-03             259.132           2.210e+00     
-164.000         -90.000            6.847e-03           4.275e-03               4.980           2.572e-03             252.409           1.618e+00     
-163.000         -90.000            4.814e-03           2.734e-03              79.486           2.080e-03             246.013           8.548e+00     
