Theta [deg.]  Phi   [deg.]  Abs(Dir.)[      ]   Abs(Theta)[      ]  Phase(Theta)[deg.]  Abs(Phi  )[      ]  Phase(Phi  )[deg.]  Ax.Ratio[      ]    
------------------------------------------------------------------------------------------------------------------------------------------------------
-180.000         -90.000            2.326e-03           1.441e-06              88.634           2.325e-03              61.510           8.814e+01     
-179.000         -90.000            9.026e-03           6.689e-03             124.582           2.337e-03              60.938           2.063e+00     
-178.000         -90.000            2.564e-02           2.327e-02             125.051           2.372e-03              59.273           3.499e+00     
-177.000         -90.000            4.426e-02           4.183e-02             125.554           2.424e-03              56.621           4.487e+00     
-176.000         -90.000            5.606e-02           5.358e-02             126.334           2.485e-03              53.130           4.870e+00     
-175.000         -90.000            5.553e-02           5.299e-02             127.674           2.540e-03              48.949           4.666e+00     
-174.000         -90.000            4.306e-02           4.049e-02             130.196           2.572e-03              44.195           3.979e+00     
-173.000         -90.000            2.478e-02           2.221e-02             135.715           2.562e-03              38.938           2.971e+00     
-172.000         -90.000            9.572e-03           7.077e-03             152.359           2.495e-03              33.182           2.142e+00     
-171.000         -90.000            4.903e-03           2.543e-03             221.922           2.361e-03              26.868           7.573e+00     
-170.000         -90.000            1.325e-02           1.109e-02             270.009           2.163e-03              19.876           2.473e+00     
-169.000         -90.000            3.099e-02           2.907e-02             281.580           1.916e-03              12.032           3.895e+00     
-168.000         -90.000            5.006e-02           4.842e-02             286.413           1.644e-03               3.107           5.586e+00     
-167.000         -90.000            6.182e-02           6.044e-02             289.525           1.376e-03             352.870           7.451e+00     
-166.000         -90.000            6.097e-02           5.984e-02             292.546           1.137e-03             341.161           9.750e+00     
-165.000         -90.000            4.804e-02           4.709e-02             296.766           9.461e-04             328.055           1.378e+01     
-164.000         -90.000            2.906e-02           2.826e-02             304.583           8.069e-04             314.013           3.712e+01     
-163.000         -90.000            1.287e-02           1.217e-02             323.423           7.096e-04             299.850           1.087e+01     
