Theta [deg.]  Phi   [deg.]  Abs(Dir.)[      ]   Abs(Theta)[      ]  Phase(Theta)[deg.]  Abs(Phi  )[      ]  Phase(Phi  )[deg.]  Ax.Ratio[      ]    
------------------------------------------------------------------------------------------------------------------------------------------------------
-180.000         -90.000            9.835e-04           1.528e-09             340.295           9.835e-04              50.677           3.162e+02     
-179.000         -90.000            4.417e-03           3.452e-03             201.136           9.644e-04              50.216           4.771e+00     
-178.000         -90.000            1.393e-02           1.302e-02             201.250           9.089e-04              48.796           8.640e+00     
-177.000         -90.000            2.734e-02           2.652e-02             201.474           8.237e-04              46.304           1.386e+01     
-176.000         -90.000            4.157e-02           4.086e-02             201.834           7.189e-04              42.537           2.165e+01     
-175.000         -90.000            5.339e-02           5.278e-02             202.377           6.069e-04              37.185           3.688e+01     
-174.000         -90.000            6.014e-02           5.963e-02             203.184           5.009e-04              29.834           9.500e+01     
-173.000         -90.000            6.035e-02           5.994e-02             204.393           4.134e-04              20.052           1.602e+02     
-172.000         -90.000            5.410e-02           5.375e-02             206.240           3.545e-04               7.694           3.894e+01     
-171.000         -90.000            4.296e-02           4.263e-02             209.186           3.313e-04             353.383           1.949e+01     
-170.000         -90.000            2.959e-02           2.924e-02             214.204           3.468e-04             338.727           1.119e+01     
-169.000         -90.000            1.718e-02           1.678e-02             223.664           4.002e-04             325.484           6.622e+00     
-168.000         -90.000            8.666e-03           8.179e-03             243.881           4.870e-04             314.558           4.373e+00     
-167.000         -90.000            6.076e-03           5.476e-03             283.421           5.995e-04             305.953           8.635e+00     
-166.000         -90.000            1.008e-02           9.350e-03             319.957           7.283e-04             299.268           1.084e+01     
-165.000         -90.000            1.985e-02           1.898e-02             337.749           8.628e-04             294.070           6.957e+00     
-164.000         -90.000            3.327e-02           3.228e-02             346.475           9.928e-04             290.010           6.906e+00     
-163.000         -90.000            4.743e-02           4.632e-02             351.555           1.110e-03             286.846           7.178e+00     
