Theta [deg.]  Phi   [deg.]  Abs(Dir.)[      ]   Abs(Theta)[      ]  Phase(Theta)[deg.]  Abs(Phi  )[      ]  Phase(Phi  )[deg.]  Ax.Ratio[      ]    
------------------------------------------------------------------------------------------------------------------------------------------------------
-180.000         -90.000            3.093e-03           1.847e-06             209.430           3.092e-03             140.722           4.391e+01     
-179.000         -90.000            9.095e-03           5.975e-03             297.871           3.120e-03             140.462           5.295e+00     
-178.000         -90.000            2.399e-02           2.078e-02             298.694           3.203e-03             139.684           8.084e+00     
-177.000         -90.000            4.006e-02           3.674e-02             299.460           3.328e-03             138.371           1.109e+01     
-176.000         -90.000            4.907e-02           4.560e-02             300.592           3.476e-03             136.501           1.415e+01     
-175.000         -90.000            4.650e-02           4.287e-02             302.533           3.622e-03             134.046           1.864e+01     
-174.000         -90.000            3.393e-02           3.019e-02             306.293           3.740e-03             130.976           3.909e+01     
-173.000         -90.000            1.818e-02           1.438e-02             315.198           3.804e-03             127.265           1.776e+01     
-172.000         -90.000            7.751e-03           3.954e-03             346.099           3.797e-03             122.893           2.526e+00     
-171.000         -90.000            8.356e-03           4.648e-03              59.955           3.708e-03             117.849           1.830e+00     
-170.000         -90.000            1.999e-02           1.645e-02              86.567           3.540e-03             112.141           5.899e+00     
-169.000         -90.000            3.689e-02           3.359e-02              94.895           3.302e-03             105.802           1.846e+01     
-168.000         -90.000            5.052e-02           4.751e-02              99.010           3.011e-03              98.891           3.162e+02     
-167.000         -90.000            5.392e-02           5.124e-02             102.029           2.684e-03              91.499           2.512e+01     
-166.000         -90.000            4.526e-02           4.293e-02             105.425           2.337e-03              83.750           1.215e+01     
-165.000         -90.000            2.876e-02           2.678e-02             111.106           1.983e-03              75.793           6.678e+00     
-164.000         -90.000            1.259e-02           1.096e-02             124.875           1.634e-03              67.798           3.237e+00     
-163.000         -90.000            4.821e-03           3.523e-03             172.673           1.298e-03              59.972           1.924e+00     
