Theta [deg.]  Phi   [deg.]  Abs(Dir.)[      ]   Abs(Theta)[      ]  Phase(Theta)[deg.]  Abs(Phi  )[      ]  Phase(Phi  )[deg.]  Ax.Ratio[      ]    
------------------------------------------------------------------------------------------------------------------------------------------------------
-180.000         -90.000            2.769e-03           1.729e-06             288.018           2.768e-03             234.427           4.973e+01     
-179.000         -90.000            9.192e-03           6.400e-03               1.190           2.792e-03             234.052           2.291e+00     
-178.000         -90.000            2.511e-02           2.225e-02               1.924           2.861e-03             232.950           3.784e+00     
-177.000         -90.000            4.250e-02           3.954e-02               2.603           2.966e-03             231.157           5.037e+00     
-176.000         -90.000            5.265e-02           4.956e-02               3.604           3.090e-03             228.721           5.834e+00     
-175.000         -90.000            5.058e-02           4.737e-02               5.311           3.211e-03             225.680           6.170e+00     
-174.000         -90.000            3.755e-02           3.425e-02               8.583           3.305e-03             222.061           6.239e+00     
-173.000         -90.000            2.040e-02           1.706e-02              16.136           3.347e-03             217.870           7.152e+00     
-172.000         -90.000            8.072e-03           4.751e-03              41.537           3.321e-03             213.097           1.377e+01     
-171.000         -90.000            7.075e-03           3.860e-03             117.872           3.215e-03             207.716           1.096e+00     
-170.000         -90.000            1.822e-02           1.519e-02             149.493           3.032e-03             201.698           3.072e+00     
-169.000         -90.000            3.620e-02           3.342e-02             158.531           2.783e-03             195.012           6.152e+00     
-168.000         -90.000            5.226e-02           4.977e-02             162.767           2.487e-03             187.636           1.108e+01     
-167.000         -90.000            5.852e-02           5.635e-02             165.736           2.168e-03             179.578           2.208e+01     
-166.000         -90.000            5.188e-02           5.004e-02             168.907           1.848e-03             170.885           1.563e+02     
-165.000         -90.000            3.553e-02           3.399e-02             173.884           1.542e-03             161.670           2.315e+01     
-164.000         -90.000            1.736e-02           1.610e-02             184.788           1.261e-03             152.116           6.995e+00     
-163.000         -90.000            6.212e-03           5.206e-03             218.790           1.007e-03             142.498           2.371e+00     
