Theta [deg.]  Phi   [deg.]  Abs(Dir.)[      ]   Abs(Theta)[      ]  Phase(Theta)[deg.]  Abs(Phi  )[      ]  Phase(Phi  )[deg.]  Ax.Ratio[      ]    
------------------------------------------------------------------------------------------------------------------------------------------------------
-180.000         -90.000            4.865e-03           4.481e-06             112.213           4.860e-03             319.258           7.249e+01     
-179.000         -90.000            6.719e-03           1.785e-03             267.266           4.934e-03             319.247           2.469e+00     
-178.000         -90.000            1.157e-02           6.421e-03             268.522           5.149e-03             319.170           2.133e+00     
-177.000         -90.000            1.674e-02           1.127e-02             269.983           5.475e-03             318.860           2.416e+00     
-176.000         -90.000            1.948e-02           1.363e-02             272.321           5.857e-03             318.097           2.669e+00     
-175.000         -90.000            1.856e-02           1.234e-02             276.422           6.221e-03             316.655           2.940e+00     
-174.000         -90.000            1.490e-02           8.414e-03             284.384           6.485e-03             314.314           3.778e+00     
-173.000         -90.000            1.093e-02           4.346e-03             302.073           6.585e-03             310.872           1.328e+01     
-172.000         -90.000            9.054e-03           2.565e-03             340.477           6.490e-03             306.125           3.660e+00     
-171.000         -90.000            1.020e-02           3.975e-03              20.147           6.225e-03             299.891           1.327e+00     
-170.000         -90.000            1.333e-02           7.472e-03              38.729           5.863e-03             292.054           1.377e+00     
-169.000         -90.000            1.619e-02           1.069e-02              46.929           5.502e-03             282.664           2.072e+00     
-168.000         -90.000            1.670e-02           1.148e-02              51.073           5.228e-03             272.054           2.949e+00     
-167.000         -90.000            1.428e-02           9.201e-03              53.555           5.080e-03             260.844           4.325e+00     
-166.000         -90.000            1.012e-02           5.081e-03              55.749           5.035e-03             249.764           8.136e+00     
-165.000         -90.000            6.399e-03           1.386e-03              60.345           5.012e-03             239.364           1.418e+02     
-164.000         -90.000            4.950e-03           3.453e-05             156.993           4.915e-03             229.881           1.249e+01     
-163.000         -90.000            6.131e-03           1.464e-03             223.279           4.666e-03             221.258           6.649e+01     
