Theta [deg.]  Phi   [deg.]  Abs(Dir.)[      ]   Abs(Theta)[      ]  Phase(Theta)[deg.]  Abs(Phi  )[      ]  Phase(Phi  )[deg.]  Ax.Ratio[      ]    
------------------------------------------------------------------------------------------------------------------------------------------------------
-180.000         -90.000            1.333e-03           7.460e-07             278.205           1.333e-03             317.723           6.644e+01     
-179.000         -90.000            5.771e-03           4.437e-03             163.106           1.333e-03             316.999           5.199e+00     
-178.000         -90.000            1.747e-02           1.613e-02             162.919           1.335e-03             314.877           7.879e+00     
-177.000         -90.000            3.192e-02           3.059e-02             163.103           1.337e-03             311.472           9.413e+00     
-176.000         -90.000            4.359e-02           4.226e-02             163.566           1.337e-03             306.945           9.617e+00     
-175.000         -90.000            4.804e-02           4.670e-02             164.417           1.332e-03             301.468           8.824e+00     
-174.000         -90.000            4.362e-02           4.231e-02             165.931           1.316e-03             295.175           7.413e+00     
-173.000         -90.000            3.215e-02           3.087e-02             168.761           1.283e-03             288.141           5.686e+00     
-172.000         -90.000            1.815e-02           1.692e-02             174.771           1.228e-03             280.331           3.874e+00     
-171.000         -90.000            7.096e-03           5.945e-03             191.452           1.151e-03             271.614           2.322e+00     
-170.000         -90.000            3.306e-03           2.248e-03             250.595           1.058e-03             261.763           1.098e+01     
-169.000         -90.000            8.291e-03           7.332e-03             301.029           9.592e-04             250.505           3.786e+00     
-168.000         -90.000            2.020e-02           1.932e-02             315.152           8.734e-04             237.640           4.828e+00     
-167.000         -90.000            3.453e-02           3.372e-02             320.998           8.180e-04             223.243           6.482e+00     
-166.000         -90.000            4.592e-02           4.511e-02             324.540           8.078e-04             207.888           8.392e+00     
-165.000         -90.000            5.014e-02           4.929e-02             327.580           8.495e-04             192.581           1.087e+01     
-164.000         -90.000            4.574e-02           4.480e-02             331.194           9.390e-04             178.327           1.540e+01     
-163.000         -90.000            3.463e-02           3.357e-02             336.734           1.061e-03             165.693           3.723e+01     
