Theta [deg.]  Phi   [deg.]  Abs(Dir.)[      ]   Abs(Theta)[      ]  Phase(Theta)[deg.]  Abs(Phi  )[      ]  Phase(Phi  )[deg.]  Ax.Ratio[      ]    
------------------------------------------------------------------------------------------------------------------------------------------------------
-180.000         -90.000            4.821e-03           2.786e-06             266.634           4.818e-03             134.051           5.649e+01     
-179.000         -90.000            8.011e-03           3.145e-03              37.541           4.865e-03             134.091           1.280e+00     
-178.000         -90.000            1.604e-02           1.104e-02              38.709           5.004e-03             134.155           1.503e+00     
-177.000         -90.000            2.445e-02           1.923e-02              39.925           5.216e-03             134.078           1.929e+00     
-176.000         -90.000            2.865e-02           2.318e-02              41.816           5.469e-03             133.634           2.060e+00     
-175.000         -90.000            2.654e-02           2.082e-02              45.153           5.721e-03             132.595           1.911e+00     
-174.000         -90.000            1.969e-02           1.376e-02              51.830           5.923e-03             130.759           1.595e+00     
-173.000         -90.000            1.234e-02           6.304e-03              68.098           6.037e-03             127.973           1.737e+00     
-172.000         -90.000            8.969e-03           2.929e-03             112.644           6.040e-03             124.137           1.061e+01     
-171.000         -90.000            1.166e-02           5.730e-03             160.865           5.932e-03             119.212           2.629e+00     
-170.000         -90.000            1.893e-02           1.320e-02             179.151           5.735e-03             113.240           1.841e+00     
-169.000         -90.000            2.658e-02           2.110e-02             186.652           5.477e-03             106.354           2.011e+00     
-168.000         -90.000            3.009e-02           2.491e-02             190.720           5.184e-03              98.785           2.194e+00     
-167.000         -90.000            2.721e-02           2.235e-02             193.814           4.863e-03              90.830           2.230e+00     
-166.000         -90.000            1.920e-02           1.470e-02             197.610           4.503e-03              82.787           2.131e+00     
-165.000         -90.000            1.015e-02           6.063e-03             205.704           4.083e-03              74.893           2.250e+00     
-164.000         -90.000            4.638e-03           1.047e-03             241.982           3.591e-03              67.282           2.586e+01     
-163.000         -90.000            5.261e-03           2.229e-03             331.820           3.032e-03              59.975           1.170e+00     
