Theta [deg.]  Phi   [deg.]  Abs(Dir.)[      ]   Abs(Theta)[      ]  Phase(Theta)[deg.]  Abs(Phi  )[      ]  Phase(Phi  )[deg.]  Ax.Ratio[      ]    
------------------------------------------------------------------------------------------------------------------------------------------------------
-180.000         -90.000            1.046e-03           1.852e-06             299.009           1.044e-03             296.590           3.162e+02     
-179.000         -90.000            8.203e-03           7.154e-03               3.561           1.050e-03             295.642           2.884e+00     
-178.000         -90.000            2.604e-02           2.498e-02               4.223           1.058e-03             292.926           5.153e+00     
-177.000         -90.000            4.595e-02           4.488e-02               4.825           1.069e-03             288.741           6.686e+00     
-176.000         -90.000            5.839e-02           5.731e-02               5.704           1.079e-03             283.514           7.359e+00     
-175.000         -90.000            5.742e-02           5.634e-02               7.186           1.079e-03             277.697           7.227e+00     
-174.000         -90.000            4.365e-02           4.260e-02               9.965           1.053e-03             271.675           6.429e+00     
-173.000         -90.000            2.391e-02           2.293e-02              16.102           9.840e-04             265.660           5.180e+00     
-172.000         -90.000            7.988e-03           7.131e-03              35.022           8.567e-04             259.715           4.366e+00     
-171.000         -90.000            3.930e-03           3.259e-03             106.722           6.706e-04             253.716           4.666e+00     
-170.000         -90.000            1.421e-02           1.377e-02             149.384           4.445e-04             247.248           5.621e+00     
-169.000         -90.000            3.455e-02           3.433e-02             160.322           2.196e-04             238.998           1.275e+01     
-168.000         -90.000            5.592e-02           5.587e-02             165.042           5.477e-05             221.948           3.813e+01     
-167.000         -90.000            6.879e-02           6.877e-02             168.118           1.429e-05             116.614           8.863e+01     
-166.000         -90.000            6.753e-02           6.738e-02             171.120           1.518e-04              72.335           2.132e+01     
-165.000         -90.000            5.305e-02           5.255e-02             175.339           4.939e-04              61.563           1.129e+01     
-164.000         -90.000            3.228e-02           3.125e-02             183.211           1.029e-03              54.830           7.121e+00     
-163.000         -90.000            1.507e-02           1.336e-02             202.302           1.704e-03              49.259           6.819e+00     
