Theta [deg.]  Phi   [deg.]  Abs(Dir.)[      ]   Abs(Theta)[      ]  Phase(Theta)[deg.]  Abs(Phi  )[      ]  Phase(Phi  )[deg.]  Ax.Ratio[      ]    
------------------------------------------------------------------------------------------------------------------------------------------------------
-180.000         -90.000            1.779e-03           6.510e-08             310.746           1.779e-03             313.020           3.162e+02     
-179.000         -90.000            3.721e-03           1.919e-03             224.751           1.802e-03             312.668           1.049e+00     
-178.000         -90.000            9.112e-03           7.245e-03             224.693           1.866e-03             311.626           1.975e+00     
-177.000         -90.000            1.677e-02           1.480e-02             224.837           1.973e-03             309.988           2.751e+00     
-176.000         -90.000            2.502e-02           2.290e-02             225.128           2.122e-03             307.882           3.317e+00     
-175.000         -90.000            3.208e-02           2.977e-02             225.594           2.309e-03             305.452           3.657e+00     
-174.000         -90.000            3.644e-02           3.391e-02             226.301           2.531e-03             302.825           3.781e+00     
-173.000         -90.000            3.724e-02           3.446e-02             227.368           2.778e-03             300.104           3.717e+00     
-172.000         -90.000            3.440e-02           3.136e-02             228.995           3.038e-03             297.358           3.506e+00     
-171.000         -90.000            2.866e-02           2.536e-02             231.575           3.298e-03             294.633           3.203e+00     
-170.000         -90.000            2.141e-02           1.787e-02             235.913           3.540e-03             291.948           2.901e+00     
-169.000         -90.000            1.435e-02           1.060e-02             243.925           3.750e-03             289.306           2.846e+00     
-168.000         -90.000            9.114e-03           5.203e-03             260.797           3.911e-03             286.705           4.397e+00     
-167.000         -90.000            6.928e-03           2.916e-03             296.834           4.012e-03             284.135           9.104e+00     
-166.000         -90.000            8.316e-03           4.269e-03             337.828           4.047e-03             281.589           1.873e+00     
-165.000         -90.000            1.300e-02           8.989e-03             358.940           4.014e-03             279.062           1.556e+00     
-164.000         -90.000            1.999e-02           1.608e-02               8.848           3.918e-03             276.549           2.028e+00     
-163.000         -90.000            2.779e-02           2.402e-02              14.349           3.766e-03             274.061           2.582e+00     
