Theta [deg.]  Phi   [deg.]  Abs(Dir.)[      ]   Abs(Theta)[      ]  Phase(Theta)[deg.]  Abs(Phi  )[      ]  Phase(Phi  )[deg.]  Ax.Ratio[      ]    
------------------------------------------------------------------------------------------------------------------------------------------------------
-180.000         -90.000            1.876e-03           5.234e-08             218.165           1.875e-03             202.277           3.162e+02     
-179.000         -90.000            3.852e-03           1.952e-03             151.966           1.900e-03             202.185           2.134e+00     
-178.000         -90.000            9.310e-03           7.338e-03             151.944           1.972e-03             201.868           2.847e+00     
-177.000         -90.000            1.700e-02           1.491e-02             152.110           2.089e-03             201.339           3.755e+00     
-176.000         -90.000            2.517e-02           2.292e-02             152.425           2.248e-03             200.619           4.481e+00     
-175.000         -90.000            3.197e-02           2.953e-02             152.924           2.442e-03             199.729           4.963e+00     
-174.000         -90.000            3.591e-02           3.325e-02             153.685           2.663e-03             198.688           5.205e+00     
-173.000         -90.000            3.616e-02           3.327e-02             154.838           2.898e-03             197.510           5.243e+00     
-172.000         -90.000            3.278e-02           2.965e-02             156.619           3.133e-03             196.201           5.144e+00     
-171.000         -90.000            2.666e-02           2.330e-02             159.492           3.353e-03             194.774           5.022e+00     
-170.000         -90.000            1.930e-02           1.576e-02             164.450           3.541e-03             193.227           5.174e+00     
-169.000         -90.000            1.251e-02           8.831e-03             173.979           3.683e-03             191.559           7.125e+00     
-168.000         -90.000            7.910e-03           4.144e-03             194.991           3.766e-03             189.772           2.197e+01     
-167.000         -90.000            6.594e-03           2.810e-03             236.827           3.783e-03             187.864           2.233e+00     
-166.000         -90.000            8.887e-03           5.153e-03             273.364           3.734e-03             185.838           1.182e+00     
-165.000         -90.000            1.427e-02           1.065e-02             290.246           3.620e-03             183.700           1.860e+00     
-164.000         -90.000            2.152e-02           1.807e-02             298.399           3.451e-03             181.457           2.685e+00     
-163.000         -90.000            2.899e-02           2.575e-02             303.129           3.238e-03             179.134           3.547e+00     
