Theta [deg.]  Phi   [deg.]  Abs(Dir.)[      ]   Abs(Theta)[      ]  Phase(Theta)[deg.]  Abs(Phi  )[      ]  Phase(Phi  )[deg.]  Ax.Ratio[      ]    
------------------------------------------------------------------------------------------------------------------------------------------------------
-180.000         -90.000            5.963e-06           2.256e-07             155.679           5.737e-06             249.561           5.056e+00     
-179.000         -90.000            4.064e-03           4.060e-03             278.605           3.998e-06             253.354           7.476e+01     
-178.000         -90.000            1.493e-02           1.493e-02             278.946           8.000e-07             281.935           3.162e+02     
-177.000         -90.000            2.892e-02           2.892e-02             279.304           2.708e-06              29.171           1.099e+02     
-176.000         -90.000            4.132e-02           4.130e-02             279.829           1.908e-05              43.256           5.576e+01     
-175.000         -90.000            4.798e-02           4.792e-02             280.648           5.991e-05              45.645           3.454e+01     
-174.000         -90.000            4.673e-02           4.660e-02             281.977           1.336e-04              45.419           2.240e+01     
-173.000         -90.000            3.812e-02           3.787e-02             284.249           2.454e-04              44.035           1.434e+01     
-172.000         -90.000            2.522e-02           2.482e-02             288.521           3.955e-04              41.848           8.650e+00     
-171.000         -90.000            1.261e-02           1.203e-02             298.014           5.803e-04              39.040           4.648e+00     
-170.000         -90.000            4.799e-03           4.006e-03             326.021           7.927e-04              35.684           2.467e+00     
-169.000         -90.000            4.718e-03           3.694e-03              29.354           1.024e-03              31.826           5.622e+01     
-168.000         -90.000            1.274e-02           1.147e-02              60.495           1.267e-03              27.514           5.971e+00     
-167.000         -90.000            2.655e-02           2.504e-02              71.050           1.513e-03              22.820           5.605e+00     
-166.000         -90.000            4.192e-02           4.016e-02              76.084           1.760e-03              17.820           5.688e+00     
-165.000         -90.000            5.409e-02           5.209e-02              79.292           2.003e-03              12.634           5.589e+00     
-164.000         -90.000            5.935e-02           5.711e-02              82.008           2.241e-03               7.399           5.251e+00     
-163.000         -90.000            5.620e-02           5.373e-02              85.046           2.469e-03               2.265           4.705e+00     
