Theta [deg.]  Phi   [deg.]  Abs(Dir.)[      ]   Abs(Theta)[      ]  Phase(Theta)[deg.]  Abs(Phi  )[      ]  Phase(Phi  )[deg.]  Ax.Ratio[      ]    
------------------------------------------------------------------------------------------------------------------------------------------------------
-180.000         -90.000            6.619e-02           4.589e-07             217.937           6.619e-02             323.658           3.162e+02     
-179.000         -90.000            6.721e-02           1.599e-03             339.544           6.561e-02             323.534           2.375e+01     
-178.000         -90.000            7.015e-02           6.192e-03             339.971           6.396e-02             323.153           1.210e+01     
-177.000         -90.000            7.432e-02           1.303e-02             340.110           6.129e-02             322.506           8.580e+00     
-176.000         -90.000            7.873e-02           2.098e-02             340.183           5.775e-02             321.578           6.946e+00     
-175.000         -90.000            8.223e-02           2.875e-02             340.244           5.348e-02             320.348           5.996e+00     
-174.000         -90.000            8.375e-02           3.507e-02             340.325           4.868e-02             318.785           5.333e+00     
-173.000         -90.000            8.244e-02           3.890e-02             340.461           4.354e-02             316.846           4.792e+00     
-172.000         -90.000            7.792e-02           3.964e-02             340.693           3.828e-02             314.481           4.296e+00     
-171.000         -90.000            7.027e-02           3.717e-02             341.092           3.310e-02             311.620           3.809e+00     
-170.000         -90.000            6.009e-02           3.191e-02             341.768           2.818e-02             308.178           3.321e+00     
-169.000         -90.000            4.839e-02           2.472e-02             342.945           2.367e-02             304.049           2.833e+00     
-168.000         -90.000            3.647e-02           1.679e-02             345.077           1.968e-02             299.119           2.369e+00     
-167.000         -90.000            2.574e-02           9.436e-03             349.319           1.631e-02             293.275           2.003e+00     
-166.000         -90.000            1.746e-02           3.881e-03             359.557           1.358e-02             286.438           2.018e+00     
-165.000         -90.000            1.257e-02           1.079e-03              34.499           1.149e-02             278.622           3.697e+00     
-164.000         -90.000            1.159e-02           1.565e-03             102.861           1.003e-02             269.999           1.307e+01     
-163.000         -90.000            1.449e-02           5.371e-03             126.889           9.118e-03             260.933           2.477e+00     
