Theta [deg.]  Phi   [deg.]  Abs(Dir.)[      ]   Abs(Theta)[      ]  Phase(Theta)[deg.]  Abs(Phi  )[      ]  Phase(Phi  )[deg.]  Ax.Ratio[      ]    
------------------------------------------------------------------------------------------------------------------------------------------------------
-180.000         -90.000            9.415e-02           5.607e-07             310.011           9.415e-02              62.415           3.162e+02     
-179.000         -90.000            9.509e-02           1.742e-03              34.512           9.335e-02              62.319           1.592e+01     
-178.000         -90.000            9.773e-02           6.701e-03              35.033           9.103e-02              62.014           8.606e+00     
-177.000         -90.000            1.014e-01           1.414e-02              35.194           8.729e-02              61.495           6.358e+00     
-176.000         -90.000            1.053e-01           2.298e-02              35.263           8.229e-02              60.750           5.442e+00     
-175.000         -90.000            1.081e-01           3.189e-02              35.302           7.625e-02              59.763           5.100e+00     
-174.000         -90.000            1.090e-01           3.959e-02              35.341           6.941e-02              58.508           5.089e+00     
-173.000         -90.000            1.070e-01           4.495e-02              35.407           6.206e-02              56.953           5.329e+00     
-172.000         -90.000            1.017e-01           4.720e-02              35.531           5.448e-02              55.052           5.829e+00     
-171.000         -90.000            9.296e-02           4.603e-02              35.760           4.693e-02              52.748           6.696e+00     
-170.000         -90.000            8.132e-02           4.163e-02              36.161           3.969e-02              49.962           8.266e+00     
-169.000         -90.000            6.762e-02           3.466e-02              36.857           3.296e-02              46.590           1.175e+01     
-168.000         -90.000            5.307e-02           2.615e-02              38.068           2.692e-02              42.503           2.583e+01     
-167.000         -90.000            3.903e-02           1.734e-02              40.269           2.169e-02              37.544           4.230e+01     
-166.000         -90.000            2.688e-02           9.519e-03              44.663           1.736e-02              31.537           9.097e+00     
-165.000         -90.000            1.775e-02           3.814e-03              55.346           1.393e-02              24.329           4.502e+00     
-164.000         -90.000            1.245e-02           1.056e-03              92.054           1.139e-02              15.868           3.402e+00     
-163.000         -90.000            1.132e-02           1.661e-03             159.524           9.664e-03               6.315           6.108e+00     
