Theta [deg.]  Phi   [deg.]  Abs(Dir.)[      ]   Abs(Theta)[      ]  Phase(Theta)[deg.]  Abs(Phi  )[      ]  Phase(Phi  )[deg.]  Ax.Ratio[      ]    
------------------------------------------------------------------------------------------------------------------------------------------------------
-180.000         -90.000            8.892e-04           1.402e-06              16.935           8.878e-04              10.816           2.364e+02     
-179.000         -90.000            8.040e-03           7.147e-03              61.452           8.925e-04               9.974           3.806e+00     
-178.000         -90.000            2.588e-02           2.498e-02              61.957           8.998e-04               7.586           6.563e+00     
-177.000         -90.000            4.608e-02           4.517e-02              62.477           9.079e-04               3.861           8.308e+00     
-176.000         -90.000            5.923e-02           5.832e-02              63.269           9.124e-04             359.082           8.908e+00     
-175.000         -90.000            5.927e-02           5.837e-02              64.616           9.057e-04             353.531           8.500e+00     
-174.000         -90.000            4.631e-02           4.543e-02              67.120           8.772e-04             347.424           7.319e+00     
-173.000         -90.000            2.657e-02           2.576e-02              72.493           8.156e-04             340.809           5.622e+00     
-172.000         -90.000            9.529e-03           8.815e-03              87.984           7.138e-04             333.562           3.917e+00     
-171.000         -90.000            3.459e-03           2.885e-03             151.218           5.737e-04             325.247           2.581e+01     
-170.000         -90.000            1.165e-02           1.124e-02             203.900           4.095e-04             314.832           5.636e+00     
-169.000         -90.000            3.087e-02           3.062e-02             216.881           2.498e-04             299.743           1.116e+01     
-168.000         -90.000            5.288e-02           5.274e-02             222.102           1.342e-04             273.394           2.543e+01     
-167.000         -90.000            6.813e-02           6.803e-02             225.299           1.067e-04             228.819           3.162e+02     
-166.000         -90.000            7.014e-02           6.994e-02             228.210           2.060e-04             189.545           2.954e+01     
-165.000         -90.000            5.836e-02           5.790e-02             232.039           4.559e-04             167.902           1.254e+01     
-164.000         -90.000            3.832e-02           3.746e-02             238.709           8.567e-04             154.764           6.651e+00     
-163.000         -90.000            1.928e-02           1.789e-02             253.549           1.382e-03             145.221           3.821e+00     
