Theta [deg.]  Phi   [deg.]  Abs(Dir.)[      ]   Abs(Theta)[      ]  Phase(Theta)[deg.]  Abs(Phi  )[      ]  Phase(Phi  )[deg.]  Ax.Ratio[      ]    
------------------------------------------------------------------------------------------------------------------------------------------------------
-180.000         -90.000            2.199e-03           4.767e-08             124.910           2.199e-03             101.087           3.162e+02     
-179.000         -90.000            4.288e-03           2.068e-03              80.324           2.220e-03             101.126           5.452e+00     
-178.000         -90.000            1.003e-02           7.744e-03              80.346           2.282e-03             101.182           6.552e+00     
-177.000         -90.000            1.804e-02           1.565e-02              80.532           2.382e-03             101.227           8.236e+00     
-176.000         -90.000            2.641e-02           2.389e-02              80.866           2.516e-03             101.223           9.689e+00     
-175.000         -90.000            3.317e-02           3.049e-02              81.392           2.676e-03             101.128           1.078e+01     
-174.000         -90.000            3.675e-02           3.390e-02              82.196           2.852e-03             100.905           1.157e+01     
-173.000         -90.000            3.637e-02           3.334e-02              83.426           3.032e-03             100.521           1.222e+01     
-172.000         -90.000            3.224e-02           2.903e-02              85.351           3.203e-03              99.945           1.319e+01     
-171.000         -90.000            2.544e-02           2.209e-02              88.522           3.349e-03              99.173           1.594e+01     
-170.000         -90.000            1.771e-02           1.425e-02              94.170           3.458e-03              98.189           3.596e+01     
-169.000         -90.000            1.098e-02           7.459e-03             105.568           3.517e-03              96.987           1.429e+01     
-168.000         -90.000            6.902e-03           3.384e-03             131.982           3.518e-03              95.566           3.041e+00     
-167.000         -90.000            6.482e-03           3.023e-03             178.288           3.458e-03              93.928           1.127e+00     
-166.000         -90.000            9.810e-03           6.470e-03             209.128           3.339e-03              92.080           1.820e+00     
-165.000         -90.000            1.608e-02           1.291e-02             222.534           3.168e-03              90.031           3.086e+00     
-164.000         -90.000            2.377e-02           2.082e-02             229.264           2.953e-03              87.801           4.651e+00     
-163.000         -90.000            3.105e-02           2.834e-02             233.345           2.709e-03              85.414           6.521e+00     
