Theta [deg.]  Phi   [deg.]  Abs(Dir.)[      ]   Abs(Theta)[      ]  Phase(Theta)[deg.]  Abs(Phi  )[      ]  Phase(Phi  )[deg.]  Ax.Ratio[      ]    
------------------------------------------------------------------------------------------------------------------------------------------------------
-180.000         -90.000            9.558e-03           1.818e-07             216.938           9.558e-03             285.467           2.464e+02     
-179.000         -90.000            1.162e-02           2.136e-03              83.267           9.485e-03             285.116           6.790e+00     
-178.000         -90.000            1.745e-02           8.178e-03              83.181           9.274e-03             284.097           5.429e+00     
-177.000         -90.000            2.587e-02           1.693e-02              83.284           8.943e-03             282.398           6.262e+00     
-176.000         -90.000            3.519e-02           2.667e-02              83.509           8.519e-03             280.007           8.097e+00     
-175.000         -90.000            4.351e-02           3.547e-02              83.872           8.035e-03             276.911           1.133e+01     
-174.000         -90.000            4.916e-02           4.163e-02              84.420           7.528e-03             273.106           1.833e+01     
-173.000         -90.000            5.100e-02           4.397e-02              85.234           7.034e-03             268.605           4.931e+01     
-172.000         -90.000            4.866e-02           4.208e-02              86.449           6.583e-03             263.453           5.591e+01     
-171.000         -90.000            4.259e-02           3.639e-02              88.299           6.200e-03             257.738           1.541e+01     
-170.000         -90.000            3.401e-02           2.811e-02              91.248           5.901e-03             251.583           7.717e+00     
-169.000         -90.000            2.461e-02           1.892e-02              96.269           5.691e-03             245.161           4.361e+00     
-168.000         -90.000            1.628e-02           1.072e-02             105.737           5.568e-03             238.660           2.475e+00     
-167.000         -90.000            1.070e-02           5.177e-03             126.023           5.522e-03             232.268           1.335e+00     
-166.000         -90.000            9.001e-03           3.467e-03             165.819           5.534e-03             226.143           1.814e+00     
-165.000         -90.000            1.159e-02           6.007e-03             202.438           5.586e-03             220.400           6.332e+00     
-164.000         -90.000            1.806e-02           1.240e-02             220.157           5.656e-03             215.111           2.447e+01     
-163.000         -90.000            2.724e-02           2.152e-02             228.804           5.724e-03             210.310           7.607e+00     
