Theta [deg.]  Phi   [deg.]  Abs(Dir.)[      ]   Abs(Theta)[      ]  Phase(Theta)[deg.]  Abs(Phi  )[      ]  Phase(Phi  )[deg.]  Ax.Ratio[      ]    
------------------------------------------------------------------------------------------------------------------------------------------------------
-180.000         -90.000            1.155e-03           2.282e-06             221.422           1.153e-03             221.855           3.162e+02     
-179.000         -90.000            8.152e-03           6.996e-03             306.124           1.156e-03             220.717           2.471e+00     
-178.000         -90.000            2.562e-02           2.446e-02             306.911           1.160e-03             217.416           4.592e+00     
-177.000         -90.000            4.488e-02           4.371e-02             307.596           1.168e-03             212.338           6.144e+00     
-176.000         -90.000            5.639e-02           5.521e-02             308.580           1.182e-03             206.067           7.008e+00     
-175.000         -90.000            5.451e-02           5.332e-02             310.238           1.193e-03             199.255           7.180e+00     
-174.000         -90.000            4.033e-02           3.914e-02             313.387           1.183e-03             192.469           6.759e+00     
-173.000         -90.000            2.111e-02           1.999e-02             320.554           1.125e-03             186.052           6.078e+00     
-172.000         -90.000            6.743e-03           5.747e-03             344.078           9.958e-04             180.163           1.007e+01     
-171.000         -90.000            4.813e-03           4.023e-03              59.820           7.893e-04             174.811           2.594e+00     
-170.000         -90.000            1.688e-02           1.636e-02              94.014           5.260e-04             169.941           5.760e+00     
-169.000         -90.000            3.770e-02           3.745e-02             103.538           2.568e-04             165.479           1.370e+01     
-168.000         -90.000            5.773e-02           5.767e-02             107.936           5.652e-05             161.602           3.967e+01     
-167.000         -90.000            6.773e-02           6.773e-02             110.985           5.152e-06             333.887           1.684e+02     
-166.000         -90.000            6.324e-02           6.308e-02             114.167           1.653e-04             332.091           3.183e+01     
-165.000         -90.000            4.663e-02           4.607e-02             118.935           5.605e-04             328.295           1.866e+01     
-164.000         -90.000            2.603e-02           2.487e-02             128.500           1.161e-03             324.354           1.767e+01     
-163.000         -90.000            1.147e-02           9.583e-03             153.954           1.887e-03             320.310           1.135e+01     
