Theta [deg.]  Phi   [deg.]  Abs(Dir.)[      ]   Abs(Theta)[      ]  Phase(Theta)[deg.]  Abs(Phi  )[      ]  Phase(Phi  )[deg.]  Ax.Ratio[      ]    
------------------------------------------------------------------------------------------------------------------------------------------------------
-180.000         -90.000            1.294e-01           6.936e-07              43.378           1.294e-01             161.162           3.162e+02     
-179.000         -90.000            1.306e-01           2.192e-03              91.691           1.284e-01             161.087           8.192e+00     
-178.000         -90.000            1.336e-01           8.379e-03              92.121           1.252e-01             160.846           4.188e+00     
-177.000         -90.000            1.379e-01           1.774e-02              92.305           1.202e-01             160.435           2.870e+00     
-176.000         -90.000            1.424e-01           2.904e-02              92.449           1.134e-01             159.845           2.243e+00     
-175.000         -90.000            1.460e-01           4.079e-02              92.602           1.052e-01             159.064           1.906e+00     
-174.000         -90.000            1.473e-01           5.146e-02              92.794           9.583e-02             158.075           1.732e+00     
-173.000         -90.000            1.454e-01           5.966e-02              93.053           8.574e-02             156.853           1.665e+00     
-172.000         -90.000            1.396e-01           6.436e-02              93.414           7.527e-02             155.363           1.677e+00     
-171.000         -90.000            1.298e-01           6.499e-02              93.925           6.479e-02             153.561           1.745e+00     
-170.000         -90.000            1.161e-01           6.151e-02              94.658           5.464e-02             151.384           1.858e+00     
-169.000         -90.000            9.955e-02           5.444e-02              95.727           4.511e-02             148.746           2.020e+00     
-168.000         -90.000            8.120e-02           4.474e-02              97.325           3.646e-02             145.532           2.253e+00     
-167.000         -90.000            6.256e-02           3.369e-02              99.797           2.886e-02             141.586           2.630e+00     
-166.000         -90.000            4.518e-02           2.275e-02             103.845           2.243e-02             136.702           3.392e+00     
-165.000         -90.000            3.052e-02           1.332e-02             111.076           1.721e-02             130.626           5.855e+00     
-164.000         -90.000            1.976e-02           6.572e-03             125.712           1.318e-02             123.089           4.636e+01     
-163.000         -90.000            1.363e-02           3.345e-03             157.361           1.028e-02             113.906           3.050e+00     
