Theta [deg.]  Phi   [deg.]  Abs(Dir.)[      ]   Abs(Theta)[      ]  Phase(Theta)[deg.]  Abs(Phi  )[      ]  Phase(Phi  )[deg.]  Ax.Ratio[      ]    
------------------------------------------------------------------------------------------------------------------------------------------------------
-180.000         -90.000            3.946e-04           1.690e-07             319.538           3.944e-04             298.480           1.345e+02     
-179.000         -90.000            4.067e-03           3.671e-03              40.447           3.961e-04             297.784           3.138e+00     
-178.000         -90.000            1.392e-02           1.352e-02              40.774           4.038e-04             295.605           6.007e+00     
-177.000         -90.000            2.686e-02           2.645e-02              41.086           4.185e-04             292.090           8.421e+00     
-176.000         -90.000            3.886e-02           3.842e-02              41.525           4.417e-04             287.479           1.023e+01     
-175.000         -90.000            4.617e-02           4.570e-02              42.197           4.744e-04             282.066           1.138e+01     
-174.000         -90.000            4.658e-02           4.606e-02              43.263           5.170e-04             276.147           1.189e+01     
-173.000         -90.000            4.004e-02           3.947e-02              45.032           5.688e-04             269.949           1.188e+01     
-172.000         -90.000            2.870e-02           2.808e-02              48.197           6.268e-04             263.659           1.171e+01     
-171.000         -90.000            1.625e-02           1.557e-02              54.636           6.877e-04             257.330           1.280e+01     
-170.000         -90.000            6.719e-03           5.972e-03              71.212           7.468e-04             250.949           3.162e+02     
-169.000         -90.000            3.235e-03           2.435e-03             122.686           7.998e-04             244.453           2.290e+00     
-168.000         -90.000            7.071e-03           6.227e-03             173.257           8.436e-04             237.748           3.095e+00     
-167.000         -90.000            1.725e-02           1.637e-02             189.630           8.770e-04             230.733           6.776e+00     
-166.000         -90.000            3.083e-02           2.993e-02             196.312           9.013e-04             223.345           1.298e+01     
-165.000         -90.000            4.389e-02           4.297e-02             200.033           9.207e-04             215.524           2.609e+01     
-164.000         -90.000            5.261e-02           5.167e-02             202.741           9.409e-04             207.320           9.451e+01     
-163.000         -90.000            5.455e-02           5.358e-02             205.328           9.684e-04             198.882           6.744e+01     
