Theta [deg.]  Phi   [deg.]  Abs(Dir.)[      ]   Abs(Theta)[      ]  Phase(Theta)[deg.]  Abs(Phi  )[      ]  Phase(Phi  )[deg.]  Ax.Ratio[      ]    
------------------------------------------------------------------------------------------------------------------------------------------------------
-180.000         -90.000            2.932e-02           3.036e-07              36.627           2.932e-02             125.913           3.108e+02     
-179.000         -90.000            3.100e-02           1.943e-03             219.804           2.906e-02             125.712           3.879e+00     
-178.000         -90.000            3.583e-02           7.513e-03             219.862           2.832e-02             125.116           1.953e+00     
-177.000         -90.000            4.282e-02           1.568e-02             219.972           2.713e-02             124.114           1.340e+00     
-176.000         -90.000            5.052e-02           2.495e-02             220.147           2.557e-02             122.684           1.140e+00     
-175.000         -90.000            5.733e-02           3.362e-02             220.414           2.372e-02             120.797           1.275e+00     
-174.000         -90.000            6.176e-02           4.010e-02             220.811           2.166e-02             118.415           1.461e+00     
-173.000         -90.000            6.274e-02           4.322e-02             221.399           1.952e-02             115.491           1.634e+00     
-172.000         -90.000            5.982e-02           4.245e-02             222.277           1.737e-02             111.971           1.790e+00     
-171.000         -90.000            5.328e-02           3.796e-02             223.609           1.532e-02             107.801           1.938e+00     
-170.000         -90.000            4.405e-02           3.061e-02             225.707           1.344e-02             102.929           2.109e+00     
-169.000         -90.000            3.361e-02           2.181e-02             229.197           1.179e-02              97.331           2.396e+00     
-168.000         -90.000            2.366e-02           1.324e-02             235.539           1.042e-02              91.024           3.153e+00     
-167.000         -90.000            1.587e-02           6.541e-03             248.761           9.332e-03              84.094           7.551e+00     
-166.000         -90.000            1.157e-02           3.033e-03             279.824           8.533e-03              76.714           5.614e+00     
-165.000         -90.000            1.149e-02           3.484e-03             326.595           8.002e-03              69.133           1.606e+00     
-164.000         -90.000            1.567e-02           7.965e-03             352.947           7.706e-03              61.644           1.464e+00     
-163.000         -90.000            2.345e-02           1.585e-02               4.364           7.601e-03              54.526           2.358e+00     
