Theta [deg.]  Phi   [deg.]  Abs(Dir.)[      ]   Abs(Theta)[      ]  Phase(Theta)[deg.]  Abs(Phi  )[      ]  Phase(Phi  )[deg.]  Ax.Ratio[      ]    
------------------------------------------------------------------------------------------------------------------------------------------------------
-180.000         -90.000            3.504e-03           6.578e-07             346.731           3.503e-03             301.946           1.036e+02     
-179.000         -90.000            1.244e-02           8.961e-03             263.340           3.480e-03             300.975           3.350e+00     
-178.000         -90.000            3.397e-02           3.054e-02             263.456           3.430e-03             297.910           5.691e+00     
-177.000         -90.000            5.542e-02           5.206e-02             264.103           3.352e-03             292.789           8.623e+00     
-176.000         -90.000            6.423e-02           6.098e-02             265.423           3.249e-03             285.656           1.312e+01     
-175.000         -90.000            5.541e-02           5.228e-02             268.019           3.135e-03             276.533           2.920e+01     
-174.000         -90.000            3.450e-02           3.147e-02             273.709           3.035e-03             265.449           2.454e+01     
-173.000         -90.000            1.428e-02           1.129e-02             290.131           2.992e-03             252.583           3.767e+00     
-172.000         -90.000            7.250e-03           4.196e-03             352.400           3.054e-03             238.437           1.586e+00     
-171.000         -90.000            1.827e-02           1.502e-02              42.614           3.257e-03             223.888           1.175e+02     
-170.000         -90.000            4.175e-02           3.816e-02              55.783           3.590e-03             209.919           8.053e+00     
-169.000         -90.000            6.482e-02           6.084e-02              61.226           3.980e-03             197.209           5.823e+00     
-168.000         -90.000            7.477e-02           7.047e-02              64.707           4.295e-03             185.967           4.820e+00     
-167.000         -90.000            6.622e-02           6.184e-02              68.209           4.382e-03             176.037           3.974e+00     
-166.000         -90.000            4.402e-02           3.991e-02              73.669           4.119e-03             167.083           3.119e+00     
-165.000         -90.000            2.031e-02           1.683e-02              86.295           3.480e-03             158.688           2.361e+00     
-164.000         -90.000            7.530e-03           4.969e-03             129.932           2.561e-03             150.331           5.886e+00     
-163.000         -90.000            1.154e-02           9.990e-03             193.646           1.555e-03             141.167           3.399e+00     
