Theta [deg.]  Phi   [deg.]  Abs(Dir.)[      ]   Abs(Theta)[      ]  Phase(Theta)[deg.]  Abs(Phi  )[      ]  Phase(Phi  )[deg.]  Ax.Ratio[      ]    
------------------------------------------------------------------------------------------------------------------------------------------------------
-180.000         -90.000            3.422e-02           4.703e-08             265.049           3.422e-02             184.094           3.162e+02     
-179.000         -90.000            3.958e-02           5.833e-03             181.688           3.374e-02             183.824           7.566e+01     
-178.000         -90.000            5.473e-02           2.236e-02             181.649           3.237e-02             182.996           8.651e+01     
-177.000         -90.000            7.705e-02           4.686e-02             181.691           3.019e-02             181.568           3.162e+02     
-176.000         -90.000            1.027e-01           7.528e-02             181.788           2.739e-02             179.464           5.575e+01     
-175.000         -90.000            1.271e-01           1.029e-01             181.951           2.416e-02             176.572           2.715e+01     
-174.000         -90.000            1.461e-01           1.253e-01             182.205           2.076e-02             172.726           1.733e+01     
-173.000         -90.000            1.562e-01           1.388e-01             182.589           1.743e-02             167.708           1.229e+01     
-172.000         -90.000            1.555e-01           1.411e-01             183.167           1.439e-02             161.246           9.134e+00     
-171.000         -90.000            1.439e-01           1.321e-01             184.041           1.184e-02             153.063           6.926e+00     
-170.000         -90.000            1.231e-01           1.132e-01             185.391           9.926e-03             143.001           5.258e+00     
-169.000         -90.000            9.638e-02           8.766e-02             187.547           8.724e-03             131.253           3.935e+00     
-168.000         -90.000            6.810e-02           5.985e-02             191.205           8.248e-03             118.554           2.862e+00     
-167.000         -90.000            4.291e-02           3.447e-02             198.054           8.447e-03             106.033           2.022e+00     
-166.000         -90.000            2.509e-02           1.588e-02             213.041           9.209e-03              94.693           1.803e+00     
-165.000         -90.000            1.782e-02           7.437e-03             249.497           1.038e-02              85.016           7.445e+00     
-164.000         -90.000            2.268e-02           1.089e-02             296.691           1.178e-02              77.000           2.773e+00     
-163.000         -90.000            3.941e-02           2.619e-02             319.298           1.322e-02              70.403           1.672e+00     
