Theta [deg.]  Phi   [deg.]  Abs(Dir.)[      ]   Abs(Theta)[      ]  Phase(Theta)[deg.]  Abs(Phi  )[      ]  Phase(Phi  )[deg.]  Ax.Ratio[      ]    
------------------------------------------------------------------------------------------------------------------------------------------------------
-180.000         -90.000            1.584e-02           4.078e-08             301.602           1.584e-02             186.237           3.162e+02     
-179.000         -90.000            2.079e-02           5.183e-03             301.228           1.560e-02             185.839           2.077e+00     
-178.000         -90.000            3.450e-02           1.959e-02             301.321           1.490e-02             184.637           1.655e+00     
-177.000         -90.000            5.403e-02           4.022e-02             301.484           1.381e-02             182.582           2.154e+00     
-176.000         -90.000            7.516e-02           6.274e-02             301.743           1.243e-02             179.591           2.826e+00     
-175.000         -90.000            9.332e-02           8.245e-02             302.132           1.086e-02             175.540           3.606e+00     
-174.000         -90.000            1.045e-01           9.527e-02             302.713           9.256e-03             170.255           4.551e+00     
-173.000         -90.000            1.063e-01           9.857e-02             303.579           7.726e-03             163.518           5.828e+00     
-172.000         -90.000            9.810e-02           9.172e-02             304.896           6.381e-03             155.087           7.938e+00     
-171.000         -90.000            8.158e-02           7.628e-02             306.960           5.301e-03             144.767           1.319e+01     
-170.000         -90.000            6.016e-02           5.562e-02             310.395           4.536e-03             132.579           9.938e+01     
-169.000         -90.000            3.838e-02           3.428e-02             316.644           4.102e-03             118.931           1.054e+01     
-168.000         -90.000            2.098e-02           1.700e-02             329.746           3.988e-03             104.672           3.297e+00     
-167.000         -90.000            1.192e-02           7.763e-03               1.073           4.154e-03              90.803           1.367e+00     
-166.000         -90.000            1.355e-02           9.005e-03              48.947           4.547e-03              78.046           4.112e+00     
-165.000         -90.000            2.618e-02           2.108e-02              75.467           5.100e-03              66.669           1.645e+01     
-164.000         -90.000            4.797e-02           4.222e-02              86.826           5.747e-03              56.604           5.950e+00     
-163.000         -90.000            7.525e-02           6.883e-02              92.654           6.420e-03              47.644           4.856e+00     
