Theta [deg.]  Phi   [deg.]  Abs(Dir.)[      ]   Abs(Theta)[      ]  Phase(Theta)[deg.]  Abs(Phi  )[      ]  Phase(Phi  )[deg.]  Ax.Ratio[      ]    
------------------------------------------------------------------------------------------------------------------------------------------------------
-180.000         -90.000            2.248e-02           2.450e-07             268.041           2.248e-02             274.138           3.162e+02     
-179.000         -90.000            2.818e-02           5.757e-03             236.735           2.242e-02             273.683           3.868e+00     
-178.000         -90.000            4.281e-02           2.056e-02             236.768           2.225e-02             272.345           3.120e+00     
-177.000         -90.000            6.035e-02           3.841e-02             236.993           2.195e-02             270.181           3.513e+00     
-176.000         -90.000            7.358e-02           5.208e-02             237.434           2.150e-02             267.281           4.179e+00     
-175.000         -90.000            7.697e-02           5.610e-02             238.222           2.087e-02             263.747           5.022e+00     
-174.000         -90.000            6.897e-02           4.896e-02             239.648           2.001e-02             259.685           6.272e+00     
-173.000         -90.000            5.255e-02           3.367e-02             242.415           1.888e-02             255.185           9.321e+00     
-172.000         -90.000            3.400e-02           1.652e-02             248.723           1.748e-02             250.319           7.181e+01     
-171.000         -90.000            2.029e-02           4.504e-03             269.497           1.579e-02             245.135           5.657e+00     
-170.000         -90.000            1.632e-02           2.450e-03             348.235           1.387e-02             239.672           2.563e+00     
-169.000         -90.000            2.294e-02           1.115e-02              25.603           1.179e-02             233.931           3.964e+00     
-168.000         -90.000            3.676e-02           2.711e-02              35.240           9.653e-03             227.941           1.024e+01     
-167.000         -90.000            5.155e-02           4.398e-02              39.680           7.577e-03             221.756           7.795e+01     
-166.000         -90.000            6.085e-02           5.519e-02              42.816           5.660e-03             215.480           2.692e+01     
-165.000         -90.000            6.053e-02           5.656e-02              46.045           3.978e-03             209.325           1.396e+01     
-164.000         -90.000            5.051e-02           4.793e-02              50.504           2.580e-03             203.711           9.977e+00     
-163.000         -90.000            3.469e-02           3.319e-02              58.064           1.492e-03             199.517           7.782e+00     
