Theta [deg.]  Phi   [deg.]  Abs(Dir.)[      ]   Abs(Theta)[      ]  Phase(Theta)[deg.]  Abs(Phi  )[      ]  Phase(Phi  )[deg.]  Ax.Ratio[      ]    
------------------------------------------------------------------------------------------------------------------------------------------------------
-180.000         -90.000            4.012e-02           4.560e-08             358.219           4.012e-02             276.865           3.162e+02     
-179.000         -90.000            4.542e-02           5.825e-03             244.587           3.960e-02             276.620           5.456e+00     
-178.000         -90.000            6.049e-02           2.242e-02             244.566           3.807e-02             275.866           3.716e+00     
-177.000         -90.000            8.288e-02           4.723e-02             244.628           3.565e-02             274.568           3.783e+00     
-176.000         -90.000            1.089e-01           7.642e-02             244.750           3.251e-02             272.658           4.444e+00     
-175.000         -90.000            1.344e-01           1.055e-01             244.943           2.887e-02             270.038           5.561e+00     
-174.000         -90.000            1.550e-01           1.300e-01             245.228           2.499e-02             266.563           7.338e+00     
-173.000         -90.000            1.673e-01           1.462e-01             245.644           2.113e-02             262.040           1.057e+01     
-172.000         -90.000            1.692e-01           1.517e-01             246.246           1.755e-02             256.224           1.888e+01     
-171.000         -90.000            1.602e-01           1.457e-01             247.122           1.446e-02             248.845           1.161e+02     
-170.000         -90.000            1.413e-01           1.293e-01             248.419           1.203e-02             239.695           2.358e+01     
-169.000         -90.000            1.154e-01           1.050e-01             250.399           1.038e-02             228.809           9.395e+00     
-168.000         -90.000            8.641e-02           7.688e-02             253.564           9.527e-03             216.691           5.126e+00     
-167.000         -90.000            5.870e-02           4.925e-02             259.007           9.454e-03             204.315           3.000e+00     
-166.000         -90.000            3.662e-02           2.656e-02             269.479           1.006e-02             192.747           1.721e+00     
-165.000         -90.000            2.372e-02           1.252e-02             292.420           1.120e-02             182.673           1.428e+00     
-164.000         -90.000            2.224e-02           9.554e-03             334.925           1.268e-02             174.268           5.930e+00     
-163.000         -90.000            3.280e-02           1.849e-02               8.833           1.431e-02             167.379           5.325e+00     
