Theta [deg.]  Phi   [deg.]  Abs(Dir.)[      ]   Abs(Theta)[      ]  Phase(Theta)[deg.]  Abs(Phi  )[      ]  Phase(Phi  )[deg.]  Ax.Ratio[      ]    
------------------------------------------------------------------------------------------------------------------------------------------------------
-180.000         -90.000            2.268e-02           1.526e-07             343.481           2.268e-02               7.602           3.162e+02     
-179.000         -90.000            2.848e-02           5.894e-03             297.687           2.258e-02               7.175           2.176e+00     
-178.000         -90.000            4.347e-02           2.117e-02             297.728           2.230e-02               5.903           1.479e+00     
-177.000         -90.000            6.165e-02           3.981e-02             297.978           2.184e-02               3.836           1.705e+00     
-176.000         -90.000            7.569e-02           5.451e-02             298.459           2.118e-02               1.046           2.013e+00     
-175.000         -90.000            7.987e-02           5.957e-02             299.300           2.030e-02             357.617           2.256e+00     
-174.000         -90.000            7.229e-02           5.311e-02             300.786           1.918e-02             353.639           2.430e+00     
-173.000         -90.000            5.565e-02           3.783e-02             303.588           1.782e-02             349.189           2.618e+00     
-172.000         -90.000            3.607e-02           1.986e-02             309.670           1.621e-02             344.330           3.225e+00     
-171.000         -90.000            2.072e-02           6.341e-03             327.587           1.438e-02             339.103           1.078e+01     
-170.000         -90.000            1.497e-02           2.570e-03              34.598           1.240e-02             333.537           2.653e+00     
-169.000         -90.000            2.033e-02           9.992e-03              80.934           1.034e-02             327.651           1.520e+00     
-168.000         -90.000            3.398e-02           2.568e-02              93.172           8.307e-03             321.467           2.754e+00     
-167.000         -90.000            4.992e-02           4.353e-02              98.493           6.389e-03             315.043           4.819e+00     
-166.000         -90.000            6.140e-02           5.673e-02             101.993           4.667e-03             308.491           8.337e+00     
-165.000         -90.000            6.360e-02           6.041e-02             105.314           3.194e-03             302.044           1.584e+01     
-164.000         -90.000            5.551e-02           5.351e-02             109.584           1.999e-03             296.166           4.680e+01     
-163.000         -90.000            4.028e-02           3.919e-02             116.413           1.092e-03             291.882           7.792e+01     
