Theta [deg.]  Phi   [deg.]  Abs(Dir.)[      ]   Abs(Theta)[      ]  Phase(Theta)[deg.]  Abs(Phi  )[      ]  Phase(Phi  )[deg.]  Ax.Ratio[      ]    
------------------------------------------------------------------------------------------------------------------------------------------------------
-180.000         -90.000            1.850e-02           1.278e-08              23.744           1.850e-02              26.599           3.162e+02     
-179.000         -90.000            2.610e-02           7.945e-03              60.017           1.816e-02              26.229           3.633e+00     
-178.000         -90.000            4.648e-02           2.931e-02              60.116           1.717e-02              25.110           3.310e+00     
-177.000         -90.000            7.317e-02           5.753e-02              60.274           1.564e-02              23.203           3.782e+00     
-176.000         -90.000            9.768e-02           8.394e-02              60.539           1.374e-02              20.441           4.229e+00     
-175.000         -90.000            1.121e-01           1.004e-01              60.981           1.164e-02              16.733           4.474e+00     
-174.000         -90.000            1.115e-01           1.020e-01              61.726           9.534e-03              11.965           4.461e+00     
-173.000         -90.000            9.575e-02           8.818e-02              63.017           7.577e-03               6.004           4.177e+00     
-172.000         -90.000            6.920e-02           6.333e-02              65.402           5.871e-03             358.740           3.634e+00     
-171.000         -90.000            3.975e-02           3.528e-02              70.384           4.467e-03             350.102           2.863e+00     
-170.000         -90.000            1.632e-02           1.296e-02              83.770           3.361e-03             340.115           2.059e+00     
-169.000         -90.000            6.239e-03           3.726e-03             135.904           2.512e-03             328.914           8.946e+00     
-168.000         -90.000            1.303e-02           1.117e-02             196.401           1.860e-03             316.672           2.974e+00     
-167.000         -90.000            3.535e-02           3.400e-02             212.335           1.345e-03             303.400           5.028e+00     
-166.000         -90.000            6.736e-02           6.643e-02             218.177           9.289e-04             288.592           8.990e+00     
-165.000         -90.000            1.004e-01           9.981e-02             221.211           5.995e-04             270.647           1.703e+01     
-164.000         -90.000            1.255e-01           1.251e-01             223.300           3.730e-04             246.064           4.745e+01     
-163.000         -90.000            1.359e-01           1.357e-01             225.219           2.840e-04             211.449           9.201e+01     
