Theta [deg.]  Phi   [deg.]  Abs(Dir.)[      ]   Abs(Theta)[      ]  Phase(Theta)[deg.]  Abs(Phi  )[      ]  Phase(Phi  )[deg.]  Ax.Ratio[      ]    
------------------------------------------------------------------------------------------------------------------------------------------------------
-180.000         -90.000            7.395e-03           1.738e-06              44.382           7.393e-03             187.837           1.095e+02     
-179.000         -90.000            9.599e-03           2.043e-03             189.016           7.556e-03             187.317           8.239e+01     
-178.000         -90.000            1.522e-02           7.157e-03             189.929           8.065e-03             185.778           2.765e+01     
-177.000         -90.000            2.128e-02           1.235e-02             190.908           8.930e-03             183.246           1.513e+01     
-176.000         -90.000            2.475e-02           1.459e-02             192.447           1.016e-02             179.783           9.164e+00     
-175.000         -90.000            2.435e-02           1.259e-02             195.203           1.175e-02             175.507           5.764e+00     
-174.000         -90.000            2.126e-02           7.594e-03             200.977           1.367e-02             170.580           3.866e+00     
-173.000         -90.000            1.847e-02           2.666e-03             217.482           1.580e-02             165.181           3.292e+00     
-172.000         -90.000            1.891e-02           9.582e-04             283.033           1.795e-02             159.470           5.282e+00     
-171.000         -90.000            2.363e-02           3.835e-03             333.810           1.979e-02             153.545           3.162e+02     
-170.000         -90.000            3.103e-02           1.007e-02             346.904           2.096e-02             147.424           6.245e+00     
-169.000         -90.000            3.756e-02           1.648e-02             352.837           2.108e-02             141.030           3.541e+00     
-168.000         -90.000            3.968e-02           1.972e-02             357.216           1.996e-02             134.188           2.537e+00     
-167.000         -90.000            3.580e-02           1.814e-02               2.110           1.766e-02             126.616           1.901e+00     
-166.000         -90.000            2.728e-02           1.273e-02               9.727           1.455e-02             117.912           1.391e+00     
-165.000         -90.000            1.780e-02           6.605e-03              25.237           1.119e-02             107.559           1.345e+00     
-164.000         -90.000            1.139e-02           3.241e-03              61.951           8.145e-03              95.041           3.796e+00     
-163.000         -90.000            1.035e-02           4.583e-03             109.577           5.764e-03              80.147           3.836e+00     
