Theta [deg.]  Phi   [deg.]  Abs(Dir.)[      ]   Abs(Theta)[      ]  Phase(Theta)[deg.]  Abs(Phi  )[      ]  Phase(Phi  )[deg.]  Ax.Ratio[      ]    
------------------------------------------------------------------------------------------------------------------------------------------------------
-180.000         -90.000            6.187e-03           1.986e-06             315.893           6.185e-03              79.580           6.707e+01     
-179.000         -90.000            8.121e-03           1.856e-03             122.539           6.265e-03              79.366           3.165e+00     
-178.000         -90.000            1.307e-02           6.546e-03             123.261           6.523e-03              78.681           2.439e+00     
-177.000         -90.000            1.828e-02           1.130e-02             124.316           6.983e-03              77.274           2.395e+00     
-176.000         -90.000            2.099e-02           1.331e-02             126.133           7.684e-03              74.870           2.209e+00     
-175.000         -90.000            2.012e-02           1.144e-02             129.502           8.677e-03              71.319           1.830e+00     
-174.000         -90.000            1.691e-02           6.903e-03             136.678           1.001e-02              66.682           1.497e+00     
-173.000         -90.000            1.429e-02           2.591e-03             156.742           1.170e-02              61.217           2.141e+00     
-172.000         -90.000            1.506e-02           1.372e-03             218.087           1.369e-02              55.258           1.168e+01     
-171.000         -90.000            2.014e-02           4.383e-03             261.291           1.575e-02              49.084           4.315e+00     
-170.000         -90.000            2.783e-02           1.030e-02             274.741           1.753e-02              42.830           2.171e+00     
-169.000         -90.000            3.458e-02           1.603e-02             281.091           1.855e-02              36.459           1.591e+00     
-168.000         -90.000            3.688e-02           1.847e-02             285.719           1.841e-02              29.785           1.281e+00     
-167.000         -90.000            3.325e-02           1.630e-02             290.829           1.694e-02              22.467           1.035e+00     
-166.000         -90.000            2.516e-02           1.078e-02             298.952           1.438e-02              14.016           1.352e+00     
-165.000         -90.000            1.635e-02           5.077e-03             316.648           1.127e-02               3.786           2.557e+00     
-164.000         -90.000            1.084e-02           2.551e-03               0.995           8.285e-03             351.041           1.356e+01     
-163.000         -90.000            1.077e-02           4.846e-03              48.072           5.921e-03             335.350           1.381e+00     
