Theta [deg.]  Phi   [deg.]  Abs(Dir.)[      ]   Abs(Theta)[      ]  Phase(Theta)[deg.]  Abs(Phi  )[      ]  Phase(Phi  )[deg.]  Ax.Ratio[      ]    
------------------------------------------------------------------------------------------------------------------------------------------------------
-180.000         -90.000            1.490e-02           1.015e-06             174.692           1.490e-02              68.690           1.260e+02     
-179.000         -90.000            1.892e-02           3.813e-03             217.296           1.511e-02              67.736           4.708e+00     
-178.000         -90.000            2.891e-02           1.317e-02             217.811           1.574e-02              65.003           4.153e+00     
-177.000         -90.000            4.022e-02           2.340e-02             218.297           1.682e-02              60.869           5.085e+00     
-176.000         -90.000            4.773e-02           2.939e-02             219.043           1.833e-02              55.835           6.974e+00     
-175.000         -90.000            4.835e-02           2.817e-02             220.365           2.018e-02              50.385           1.157e+01     
-174.000         -90.000            4.254e-02           2.040e-02             222.994           2.214e-02              44.873           6.103e+01     
-173.000         -90.000            3.393e-02           1.005e-02             229.281           2.387e-02              39.484           1.279e+01     
-172.000         -90.000            2.750e-02           2.503e-03             252.194           2.500e-02              34.257           5.472e+00     
-171.000         -90.000            2.700e-02           1.841e-03             337.935           2.516e-02              29.134           4.886e+00     
-170.000         -90.000            3.300e-02           8.845e-03               8.995           2.415e-02              23.993           8.608e+00     
-169.000         -90.000            4.255e-02           2.056e-02              16.804           2.199e-02              18.672           6.137e+01     
-168.000         -90.000            5.056e-02           3.167e-02              20.279           1.890e-02              12.979           1.621e+01     
-167.000         -90.000            5.230e-02           3.703e-02              22.647           1.528e-02               6.690           7.872e+00     
-166.000         -90.000            4.576e-02           3.415e-02              25.191           1.161e-02             359.545           5.114e+00     
-165.000         -90.000            3.270e-02           2.440e-02              29.256           8.300e-03             351.269           3.443e+00     
-164.000         -90.000            1.806e-02           1.244e-02              38.115           5.614e-03             341.645           2.120e+00     
-163.000         -90.000            7.725e-03           4.098e-03              65.233           3.627e-03             330.685           1.105e+00     
