Theta [deg.]  Phi   [deg.]  Abs(Dir.)[      ]   Abs(Theta)[      ]  Phase(Theta)[deg.]  Abs(Phi  )[      ]  Phase(Phi  )[deg.]  Ax.Ratio[      ]    
------------------------------------------------------------------------------------------------------------------------------------------------------
-180.000         -90.000            2.253e-02           1.320e-08             202.405           2.253e-02             287.756           3.162e+02     
-179.000         -90.000            2.880e-02           6.484e-03             118.697           2.231e-02             287.336           1.207e+01     
-178.000         -90.000            4.526e-02           2.358e-02             118.820           2.168e-02             286.062           8.953e+00     
-177.000         -90.000            6.576e-02           4.508e-02             119.118           2.068e-02             283.960           8.114e+00     
-176.000         -90.000            8.258e-02           6.322e-02             119.639           1.936e-02             281.072           7.276e+00     
-175.000         -90.000            8.930e-02           7.150e-02             120.510           1.779e-02             277.455           6.232e+00     
-174.000         -90.000            8.311e-02           6.705e-02             121.984           1.606e-02             273.182           5.059e+00     
-173.000         -90.000            6.588e-02           5.167e-02             124.614           1.421e-02             268.332           3.849e+00     
-172.000         -90.000            4.346e-02           3.115e-02             129.835           1.230e-02             262.987           2.668e+00     
-171.000         -90.000            2.351e-02           1.313e-02             142.575           1.039e-02             257.225           1.584e+00     
-170.000         -90.000            1.278e-02           4.271e-03             184.085           8.510e-03             251.110           1.722e+00     
-169.000         -90.000            1.464e-02           7.919e-03             244.713           6.719e-03             244.690           3.162e+02     
-168.000         -90.000            2.792e-02           2.286e-02             265.647           5.062e-03             237.994           5.408e+00     
-167.000         -90.000            4.739e-02           4.380e-02             273.519           3.588e-03             231.028           5.412e+00     
-166.000         -90.000            6.568e-02           6.334e-02             277.779           2.340e-03             223.775           6.515e+00     
-165.000         -90.000            7.597e-02           7.462e-02             280.958           1.350e-03             216.179           8.247e+00     
-164.000         -90.000            7.442e-02           7.379e-02             284.224           6.332e-04             208.070           1.112e+01     
-163.000         -90.000            6.161e-02           6.142e-02             288.639           1.913e-04             198.731           1.792e+01     
