Theta [deg.]  Phi   [deg.]  Abs(Dir.)[      ]   Abs(Theta)[      ]  Phase(Theta)[deg.]  Abs(Phi  )[      ]  Phase(Phi  )[deg.]  Ax.Ratio[      ]    
------------------------------------------------------------------------------------------------------------------------------------------------------
-180.000         -90.000            1.846e-02           7.507e-07             326.824           1.846e-02             259.490           1.699e+02     
-179.000         -90.000            2.344e-02           4.866e-03             345.428           1.857e-02             258.737           1.959e+00     
-178.000         -90.000            3.587e-02           1.697e-02             345.664           1.890e-02             256.568           1.058e+00     
-177.000         -90.000            5.009e-02           3.064e-02             345.944           1.945e-02             253.195           1.262e+00     
-176.000         -90.000            5.968e-02           3.949e-02             346.413           2.019e-02             248.920           1.435e+00     
-175.000         -90.000            6.044e-02           3.939e-02             347.264           2.105e-02             244.068           1.480e+00     
-174.000         -90.000            5.228e-02           3.041e-02             348.936           2.187e-02             238.927           1.483e+00     
-173.000         -90.000            3.925e-02           1.682e-02             352.706           2.244e-02             233.694           1.734e+00     
-172.000         -90.000            2.762e-02           5.100e-03               4.605           2.252e-02             228.471           3.427e+00     
-171.000         -90.000            2.290e-02           9.796e-04              79.668           2.192e-02             223.277           8.208e+00     
-170.000         -90.000            2.730e-02           6.764e-03             137.329           2.054e-02             218.068           1.788e+00     
-169.000         -90.000            3.868e-02           2.028e-02             147.132           1.840e-02             212.755           1.555e+00     
-168.000         -90.000            5.151e-02           3.583e-02             150.880           1.568e-02             207.227           2.145e+00     
-167.000         -90.000            5.940e-02           4.677e-02             153.234           1.264e-02             201.354           2.942e+00     
-166.000         -90.000            5.803e-02           4.844e-02             155.550           9.596e-03             194.999           3.986e+00     
-165.000         -90.000            4.712e-02           4.029e-02             158.844           6.831e-03             188.037           5.646e+00     
-164.000         -90.000            3.060e-02           2.607e-02             164.894           4.532e-03             180.392           1.044e+01     
-163.000         -90.000            1.501e-02           1.223e-02             178.856           2.776e-03             172.136           2.197e+01     
