Theta [deg.]  Phi   [deg.]  Abs(Dir.)[      ]   Abs(Theta)[      ]  Phase(Theta)[deg.]  Abs(Phi  )[      ]  Phase(Phi  )[deg.]  Ax.Ratio[      ]    
------------------------------------------------------------------------------------------------------------------------------------------------------
-180.000         -90.000            1.924e-02           4.634e-08              16.655           1.924e-02             273.942           3.162e+02     
-179.000         -90.000            2.424e-02           5.282e-03             359.861           1.895e-02             273.572           1.901e+00     
-178.000         -90.000            3.813e-02           2.002e-02             359.903           1.811e-02             272.447           1.069e+00     
-177.000         -90.000            5.807e-02           4.127e-02               0.009           1.680e-02             270.520           1.568e+00     
-176.000         -90.000            7.993e-02           6.481e-02               0.189           1.512e-02             267.702           2.074e+00     
-175.000         -90.000            9.918e-02           8.595e-02               0.468           1.323e-02             263.862           2.572e+00     
-174.000         -90.000            1.118e-01           1.005e-01               0.893           1.128e-02             258.819           3.069e+00     
-173.000         -90.000            1.150e-01           1.056e-01               1.538           9.430e-03             252.343           3.580e+00     
-172.000         -90.000            1.081e-01           1.003e-01               2.527           7.807e-03             244.185           4.148e+00     
-171.000         -90.000            9.222e-02           8.570e-02               4.078           6.516e-03             234.160           4.883e+00     
-170.000         -90.000            7.047e-02           6.485e-02               6.636           5.620e-03             222.325           6.165e+00     
-169.000         -90.000            4.719e-02           4.205e-02              11.185           5.140e-03             209.162           1.030e+01     
-168.000         -90.000            2.709e-02           2.204e-02              20.387           5.056e-03             195.590           3.066e+01     
-167.000         -90.000            1.442e-02           9.104e-03              42.874           5.313e-03             182.613           2.858e+00     
-166.000         -90.000            1.207e-02           6.232e-03              92.335           5.833e-03             170.887           1.226e+00     
-165.000         -90.000            2.106e-02           1.454e-02             129.594           6.520e-03             160.598           3.945e+00     
-164.000         -90.000            4.031e-02           3.304e-02             144.278           7.275e-03             151.615           2.031e+01     
-163.000         -90.000            6.685e-02           5.885e-02             151.020           8.006e-03             143.690           2.410e+01     
